# XDI/1.0  SSRL EXAFS Data Collector 1.1 AD.RGN
# Column.1: energy eV
# Column.2: mutrans
# Column.3: murefer
# Column.4: i0
# Beamline.name: SSRL 4-3 (?)
# Element.edge: K
# Element.symbol: Sr
# Mono.d_spacing: 1.92009
# Mono.name: Si(220)
# Mono.notes: (?) unfocussed, detuned 50%, clockwise at E=16800eV
# Sample.formula: SrAl2Si2O8
# Sample.name: slawsonite
# Sample.prep: powder mixed with B2O3
# Sample.reference: unknown
# Sample.temperature: 15K
# Scan.start_time: 1997-03-18 12:50:19
# ///
#    Note: mono d_spacing is nominal!
#--------------------------------------------
# energy     mutrans     murefer      i0
  15700.043  0.26731909  -1.0133595   33278.602
  15709.991  0.26519079  -1.0157144   33013.602
  15719.954  0.26315977  -1.0177955   32799.602
  15729.931   0.2610109  -1.0198684     32430.6
  15739.919  0.25905816  -1.0210192     32105.6
  15749.921  0.25713946  -1.0236713     31940.6
  15759.935  0.25535393  -1.0258471     31630.6
  15769.963  0.25363988  -1.0272632     31157.6
  15780.002  0.25168862  -1.0297071     30776.6
  15790.057  0.24962443  -1.0315693     30692.6
  15799.958  0.24790026  -1.0336611     30133.6
  15810.037  0.24631612  -1.0357889     29832.6
  15819.965  0.24424264  -1.0375164     29437.6
  15830.071  0.24255395   -1.039621     29084.6
  15840.023  0.24081291  -1.0418671     28896.6
  15849.989  0.23874799  -1.0438119     28585.6
  15859.968  0.23722561  -1.0458778     28165.6
  15869.959  0.23548897  -1.0480914     27963.6
  15879.964  0.23391699  -1.0499917     27492.6
  15889.980  0.23228511  -1.0520514     27181.6
  15900.011  0.23061949  -1.0542618     26899.6
  15910.055  0.22906463  -1.0563386     26568.6
  15919.941  0.22711569  -1.0584228     26259.6
  15930.011  0.22539138   -1.060455     25987.6
  15939.925  0.22393865  -1.0625846     25604.6
  15950.020  0.22213157  -1.0648966     25333.6
  15959.959  0.22053433  -1.0668348     24936.6
  15970.079  0.21858058  -1.0685138     24631.6
  15980.045  0.21727006  -1.0704498     24385.6
  15990.021  0.21578515  -1.0726801     24087.6
  16000.012  0.21392126  -1.0747209     23761.6
  16010.014  0.21255027  -1.0769461     23559.6
  16020.030  0.21092802  -1.0788542     23180.6
  16030.059   0.2093786  -1.0806677     23080.6
  16039.929   0.2081696    -1.08237     22695.6
  16049.982  0.20689725  -1.0841057     22339.6
  16060.049  0.20613439  -1.0862753     22043.6
  16069.959  0.20534725  -1.0870978     21909.6
  16080.051  0.20656455  -1.0880364     21573.6
  16081.248  0.20694224  -1.0881486     21575.6
  16082.448  0.20678247  -1.0875735     21499.6
  16083.646  0.20758702  -1.0881801     21456.6
  16084.846  0.20741563  -1.0877507     21520.6
  16086.215  0.20833347  -1.0877967     21440.6
  16087.415  0.20920429  -1.0876791     21418.6
  16088.613  0.20995846  -1.0874237     21465.6
  16089.813  0.21130024  -1.0873439     21269.6
  16091.013  0.21215988  -1.0866402     21359.6
  16092.214  0.21433288  -1.0864434     21232.6
  16093.586  0.21736461  -1.0853097     21248.6
  16094.785  0.22134213  -1.0845415     21158.6
  16095.986  0.22751161  -1.0831063     21073.6
  16097.187  0.23623574  -1.0807291     21169.6
  16098.387  0.25101964  -1.0776155     21028.6
  16099.588  0.27148631  -1.0729997     20921.6
  16100.962  0.30550371  -1.0645932     20950.6
  16102.162  0.34187328  -1.0530572     20911.6
  16103.364  0.38042738  -1.0373596     20943.6
  16104.565   0.4251016  -1.0142531     20956.6
  16105.769  0.46620763 -0.98825137     20887.6
  16106.970  0.50547012 -0.95927418     20931.6
  16108.173  0.52852226 -0.93649974     20671.6
  16109.547  0.53511748  -0.9137708     20789.6
  16110.750  0.52719528 -0.89740595     20669.6
  16111.952   0.5151323  -0.8881022     20694.6
  16113.155  0.50179001 -0.88714789     20646.6
  16114.359  0.48823315 -0.89171811     20557.6
  16115.563  0.47588252 -0.90064079     20567.6
  16116.767  0.46666496 -0.91036699     20584.6
  16118.143  0.45969657  -0.9233346     20601.6
  16119.345  0.45379575 -0.93427958     20516.6
  16120.551  0.44835656 -0.94309633     20364.6
  16121.754   0.4430003 -0.95047807     20453.6
  16122.960  0.43699269  -0.9540765     20363.6
  16124.163  0.43211385 -0.95668688     20230.6
  16125.369  0.42733092 -0.95763165     20158.6
  16126.746  0.42316857 -0.95899895     20230.6
  16127.951   0.4201752 -0.95907955     20270.6
  16129.157  0.41897387 -0.95907174     20159.6
  16130.362  0.42036583 -0.95922389     20114.6
  16131.568  0.42204506 -0.95831638     20038.6
  16132.774  0.42465405 -0.95659953     20072.6
  16133.980  0.42704721 -0.95470317     20022.6
  16135.188  0.43029713 -0.95246236     19978.6
  16136.568  0.43426461 -0.94993286     20113.6
  16137.773  0.43858097 -0.94833965     20031.6
  16138.981  0.44355892 -0.94653962     19958.6
  16140.188  0.44777552 -0.94442476     19817.6
  16141.396   0.4530672 -0.94218457     19919.6
  16142.603  0.45710405 -0.93992946     19859.6
  16143.812  0.46143072 -0.93809722     19842.6
  16145.020  0.46383364  -0.9359936     19815.6
  16146.400  0.46558249 -0.93541517     19598.6
  16147.607  0.46536137 -0.93501713     19694.6
  16148.817  0.46334889 -0.93444204     19745.6
  16150.024  0.46126374 -0.93502879   39220.199
  16151.062  0.45879109 -0.93564618   39063.184
  16152.271  0.45578681 -0.93661536   39195.137
  16153.481  0.45270209 -0.93775055   39211.063
  16154.517  0.45054257 -0.93904436   38835.953
  16155.727  0.44815132 -0.94045802   38764.816
  16156.937  0.44609362 -0.94212197   38681.648
  16158.146  0.44446144 -0.94382147   38652.449
  16159.528  0.44211964 -0.94599803   38580.219
  16160.740  0.44035849  -0.9478244   38618.957
  16162.122  0.43848354 -0.94988319   38412.664
  16163.334  0.43711473 -0.95125787   38356.344
  16164.718  0.43594551 -0.95304391   38217.988
  16166.102  0.43361919  -0.9542286   38154.605
  16167.486  0.43188822 -0.95589734   38354.191
  16168.871  0.42945762 -0.95703521   38327.746
  16170.257   0.4269391 -0.95821005    38109.27
  16171.642  0.42375924 -0.95891397   38237.762
  16173.200  0.42061181 -0.95939969   38066.227
  16174.586  0.41888632 -0.95927106   37979.656
  16176.146  0.41752627 -0.95894439   38074.059
  16177.705  0.41726793 -0.95851914    38234.43
  16179.265  0.41762331 -0.95775696    38504.77
  16180.825  0.41976355 -0.95677551   38709.078
  16182.386   0.4224107 -0.95603965   38642.355
  16183.946  0.42576862 -0.95590543   38862.605
  16185.680  0.42900287  -0.9553869    39264.82
  16187.242  0.43183387 -0.95521042   39128.008
  16188.977  0.43503986 -0.95535991   39176.164
  16190.539  0.43723544 -0.95532895   39192.289
  16192.275  0.43843915 -0.95561854   39293.383
  16194.011  0.43844114 -0.95565398   39398.445
  16195.748  0.43823745 -0.95592428   39081.477
  16197.485  0.43757524 -0.95615125    39290.48
  16199.396   0.4367941 -0.95622863   39203.449
  16201.134  0.43579686 -0.95632137   39321.391
  16203.046  0.43415914  -0.9566232   39168.301
  16204.785  0.43209459 -0.95662106    39219.18
  16206.698  0.42990509 -0.95693627   39257.027
  16208.612    0.427639 -0.95777123   39309.848
  16210.525  0.42540361 -0.95856376   39072.633
  16212.439  0.42311376 -0.95953102   39336.391
  16214.355  0.42091102 -0.96080218   39471.117
  16216.271  0.41885434 -0.96202391   39537.809
  16218.360  0.41703646 -0.96352563   39484.473
  16220.276  0.41526843 -0.96458837   39639.109
  16222.367  0.41390762  -0.9654229   39748.711
  16224.459  0.41300003 -0.96636689   39587.281
  16226.551  0.41298173 -0.96694624   39687.824
  16228.644   0.4132081 -0.96743311   39772.336
  16230.738   0.4144631 -0.96790287   39950.816
  16232.832  0.41537682 -0.96859874   40049.266
  16234.925  0.41575167 -0.96872538   40127.684
  16237.194  0.41596555 -0.96910025    40051.07
  16239.290  0.41536721 -0.96921788   40299.426
  16241.561  0.41460735 -0.96919604   40254.754
  16243.832  0.41463367 -0.96949345   40172.051
  16246.104  0.41446374 -0.96981848   40293.313
  16248.377  0.41459892 -0.96989518   40508.547
  16250.650  0.41400704 -0.96965673   40350.754
  16252.925  0.41337248 -0.96979235   40771.926
  16255.199  0.41303242 -0.96996624   40866.066
  16257.649  0.41229756 -0.97024229    40690.18
  16259.925  0.41264873 -0.97093163   40945.258
  16262.377  0.41300179 -0.97143181   40972.309
  16264.830  0.41327847 -0.97195547   41079.328
  16267.282  0.41320727 -0.97233384   41081.316
  16269.737  0.41308797  -0.9727305   41214.273
  16272.192  0.41173206 -0.97303071   41403.203
  16274.646  0.41018269 -0.97315093   41511.098
  16277.279  0.40922776 -0.97360935   41701.965
  16279.736  0.40866878 -0.97407312   41547.801
  16282.369  0.40807045 -0.97456556   41584.605
  16284.828  0.40804391 -0.97498705   41950.379
  16287.463  0.40781168 -0.97553641   41775.121
  16290.099  0.40760851 -0.97639831   42182.832
  16292.735  0.40620496 -0.97693569   42267.516
  16295.373  0.40524575 -0.97770231   42267.164
  16298.013  0.40374391 -0.97849913   42240.785
  16300.827  0.40203231 -0.97912616   42525.375
  16303.468  0.40107029 -0.98004035   42607.934
  16306.286  0.40048346 -0.98063522   42764.461
  16309.104  0.39878031 -0.98104009   42705.957
  16311.748  0.39815434 -0.98166093   42830.426
  16314.567  0.39706899 -0.98243106   43358.859
  16317.388  0.39616183 -0.98256258   43207.266
  16320.211   0.3963346 -0.98297585   43182.641
  16323.212  0.39714839 -0.98354696   43500.984
  16326.035  0.39830932  -0.9835901   43510.297
  16328.861   0.3989138 -0.98381715   43757.578
  16331.863  0.39960039 -0.98457109   44154.832
  16334.867  0.39944049 -0.98463945   44151.051
  16337.696  0.39944475 -0.98517215   44190.242
  16340.703  0.39911172 -0.98570442   44065.402
  16343.710  0.39829177 -0.98611577   44218.531
  16346.719   0.3971517 -0.98660828   44355.629
  16349.905  0.39628753 -0.98782069   44599.695
  16352.918  0.39525126 -0.98840508   44912.734
  16355.929  0.39382419 -0.98900943   44575.738
  16359.119  0.39250451 -0.99002354   44787.715
  16362.312  0.39114921 -0.99097195    44874.66
  16365.326  0.38930755 -0.99111591    45110.57
  16368.521  0.38782592 -0.99160302   45180.457
  16371.717  0.38700646 -0.99196636   45153.309
  16374.914  0.38644405 -0.99248676   45220.129
  16378.111  0.38633982 -0.99289236   45417.922
  16381.488  0.38550637 -0.99319243    45417.68
  16384.689  0.38546321 -0.99419385    45841.41
  16388.068  0.38488923 -0.99487866   45970.109
  16391.271  0.38473246 -0.99554758   46167.777
  16394.656  0.38448889 -0.99627947   45907.414
  16398.039  0.38447876 -0.99722326    46542.02
  16401.424  0.38379059 -0.99782742   46504.598
  16404.813  0.38313358 -0.99860666   46643.145
  16408.199  0.38228083 -0.99871717   46990.656
  16411.590  0.38178988 -0.99954392   46852.141
  16415.160  0.38081093 -0.99983661   46863.594
  16418.553  0.37998553  -1.0000063   46847.016
  16422.127  0.37931947  -1.0005799    47099.41
  16425.521  0.37857747  -1.0012969    47201.77
  16429.098  0.37771728  -1.0019302   47625.102
  16432.676  0.37659506  -1.0024348   47322.398
  16436.254  0.37574215  -1.0027661   47405.668
  16439.834  0.37480927  -1.0035234   47484.906
  16443.416  0.37484177  -1.0042798   47697.113
  16447.180  0.37445044  -1.0049649   48101.293
  16450.766  0.37388432  -1.0057292   48361.438
  16454.354  0.37340253  -1.0063415   48234.551
  16458.121   0.3729085  -1.0072217   48378.637
  16461.891  0.37178476  -1.0078107   48368.691
  16465.662  0.37103536   -1.008416   48334.715
  16469.438  0.37013423   -1.008878   48798.707
  16473.211  0.36946534  -1.0095676   48837.668
  16476.988  0.36941331  -1.0104577   48676.602
  16480.768  0.36878834   -1.011331     49242.5
  16484.549  0.36772563  -1.0118089   49238.371
  16488.510  0.36656059  -1.0125157   49226.211
  16492.295  0.36500535  -1.0129912    49261.02
  16496.260  0.36454837  -1.0137337   49634.797
  16500.229  0.36342702  -1.0142898   49786.543
  16504.199  0.36332486  -1.0152839   49721.258
  16508.172  0.36233648   -1.015971   49940.945
  16512.145  0.36125631  -1.0164142   50119.598
  16516.121  0.36106439   -1.017217   50160.223
  16520.100  0.35990308  -1.0178353   50276.816
  16524.080   0.3595063  -1.0186791   50371.379
  16528.242  0.35865696  -1.0191351    50339.91
  16532.227  0.35783471  -1.0198174    50624.41
  16536.393  0.35718315   -1.020366   50616.883
  16540.563  0.35674922  -1.0215557    50890.32
  16544.734  0.35619779  -1.0223323    50854.73
  16548.906  0.35588127  -1.0232894   51105.109
  16553.084  0.35501671  -1.0240467   51214.457
  16557.262   0.3540906  -1.0244249   51435.773
  16561.441   0.3525681  -1.0256365   51731.063
  16565.807  0.35197593    -1.02629   51698.316
  16569.990  0.35069775  -1.0264635   51604.543
  16574.357  0.34997233  -1.0271179   52119.734
  16578.549  0.34888743  -1.0281627   52009.898
  16582.922  0.34803846  -1.0286348   51843.031
  16587.297  0.34686669  -1.0294073   52149.133
  16591.674  0.34591613  -1.0301231   52275.203
  16596.055  0.34590987  -1.0308406   52282.246
  16600.438  0.34474057  -1.0316584   52471.254
  16604.822  0.34376471  -1.0326052   52554.234
  16609.393  0.34286771  -1.0328319   52655.184
  16613.783  0.34224871  -1.0338394   52593.102
  16618.357  0.34117094  -1.0345404   52904.988
  16622.754  0.34059567  -1.0357435   53100.844
  16627.332  0.33961841  -1.0366217   53176.668
  16631.916  0.33873156  -1.0374871   53265.465
  16636.502  0.33794872  -1.0381619    53407.23
  16641.090   0.3367411  -1.0385224   53609.961
  16645.682  0.33607801  -1.0394972   53614.664
  16650.273  0.33573954  -1.0403947   53849.336
  16655.053  0.33533987  -1.0414084    53632.98
  16659.652  0.33433427  -1.0419512    53842.59
  16664.254  0.33311631  -1.0424963   53927.168
  16669.043  0.33230777  -1.0436304   53938.719
  16673.832  0.33184915  -1.0446937   54097.238
  16678.625  0.33116832  -1.0457624   54499.727
  16683.420  0.32992462  -1.0462137   54431.184
  16688.221  0.32889233  -1.0469399   54682.609
  16693.023  0.32794545  -1.0480914   54505.004
  16697.828  0.32701444  -1.0486036   54593.371
  16702.635  0.32523699  -1.0492225   54838.703
  16707.445  0.32461066  -1.0501603   54943.008
  16712.445  0.32388607  -1.0509364   54805.281
  16717.260  0.32376026  -1.0520393   55051.523
  16722.264  0.32152284  -1.0528475   55092.734
  16727.271  0.32113905  -1.0537715   55170.914
  16732.281  0.32063685   -1.054406   55190.066
  16737.295  0.31946534  -1.0551763   55417.184
  16742.313  0.31838092  -1.0560527   55079.273
  16747.332  0.31701211  -1.0565944   55300.332
  16752.355  0.31647487  -1.0575864   55351.359
  16757.381  0.31548526  -1.0582406   55285.355
  16762.596  0.31508812   -1.059195    55297.32
  16767.629  0.31395144  -1.0599735   55420.254
  16772.852  0.31289142  -1.0609509    55324.16
  16777.889   0.3116652  -1.0615959   55081.035
  16783.117  0.31083794  -1.0629362   55513.875
  16788.348  0.31046365  -1.0636007   55620.688
  16793.584  0.30864166  -1.0641731   55826.469
  16798.822  0.30837784  -1.0650627   55838.223
  16804.063  0.30766778  -1.0659245   55990.941
  16809.309  0.30706133  -1.0670643   56033.629
  16814.744  0.30634937   -1.068363   56017.289
  16819.996   0.3053127  -1.0687844   55994.918
  16825.438  0.30447209  -1.0698151   56067.516
  16830.697  0.30377297  -1.0707732   55996.082
  16836.146  0.30304292  -1.0716054   56273.617
  16841.600  0.30178534  -1.0723118   56065.121
  16847.059  0.30075047  -1.0735763   56343.598
  16852.330  0.30032126  -1.0741677   56418.039
  16857.982  0.29856433  -1.0748052   56146.453
  16863.451  0.29677109   -1.075678   56271.836
  16868.922  0.29592176   -1.076328   56498.188
  16874.396   0.2952098  -1.0773771   56374.508
  16880.064  0.29435961  -1.0784634   56292.801
  16885.547  0.29314669  -1.0791993   56369.059
  16891.223  0.29256339  -1.0801589   56290.289
  16896.711  0.29197171  -1.0814812   56544.484
  16902.396   0.2914379  -1.0817615   56461.652
  16908.082  0.29087162  -1.0831191   56518.789
  16913.773  0.29015586   -1.084165   56525.895
  16919.469  0.28848812  -1.0848695   56721.973
  16925.166  0.28731887  -1.0859947   56631.016
  16930.869  0.28549296  -1.0865421   56805.027
  16936.576  0.28375884  -1.0873226   56994.012
  16942.287  0.28327036  -1.0885534   56971.965
  16948.191  0.28149628  -1.0891232   56632.887
  16953.910  0.28051621  -1.0900718   56716.777
  16959.822  0.27986285  -1.0909961   56731.637
  16965.740  0.28005026  -1.0927659   56750.469
  16971.471  0.27863794  -1.0930659   56924.266
  16977.396  0.27761474  -1.0937905   56948.035
  16983.326  0.27657726   -1.094329   57094.773
  16989.260  0.27541613  -1.0952993    57169.48
  16995.197  0.27473737   -1.096632   57016.156
  17001.332  0.27343807  -1.0978483   57028.801
