# XDI/1.0  SSRL EXAFS Data Collector 1.1 AD.RGN
# Column.1: energy eV
# Column.2: mutrans
# Column.3: murefer
# Column.4: i0
# Beamline.name: SSRL 4-3 (?)
# Element.edge: K
# Element.symbol: Sr
# Mono.d_spacing: 1.92009
# Mono.name: Si(220)
# Mono.notes: (?) unfocussed, detuned 50%, clockwise at E=16800eV
# Sample.formula: SrAl2Si2O8
# Sample.name: slawsonite
# Sample.prep: powder mixed with B2O3
# Sample.reference: unknown
# Sample.temperature: 15K
# Scan.start_time: 1997-03-18 12:50:19
# ///
#    Note: mono d_spacing is nominal!
#--------------------------------------------
# energy     mutrans     murefer      i0
  15700.043  0.24435717  -1.0316644   55173.602
  15709.991  0.24202359  -1.0333555   54582.602
  15719.954  0.24187804  -1.0348005   54369.602
  15729.931  0.24136506  -1.0362241   53767.602
  15739.919  0.23973969    -1.03716   52560.602
  15749.921  0.23874818  -1.0394418   52998.602
  15759.935  0.23750293  -1.0411206   52473.602
  15769.963  0.23645603  -1.0424742   52014.602
  15780.002  0.23337533  -1.0446601   51436.602
  15790.057  0.23270235  -1.0460285   50913.602
  15799.958  0.23213565  -1.0473849   50420.602
  15810.037     0.23124  -1.0487935   49896.602
  15819.965  0.22980061  -1.0503901   49375.602
  15830.071  0.22792141  -1.0524647   48957.602
  15840.023  0.22689521  -1.0538708   48430.602
  15849.989  0.22580799  -1.0553842   47861.602
  15859.968  0.22465434  -1.0570069   47265.602
  15869.959  0.22282567  -1.0587649   46850.602
  15879.964  0.22127643  -1.0605647   46362.602
  15889.980   0.2197536  -1.0623635   45909.602
  15900.011  0.21833012  -1.0640112   45366.602
  15910.055  0.21677332  -1.0657753   44893.602
  15919.941  0.21572646  -1.0672386   44346.602
  15930.011  0.21374237  -1.0691944   43951.602
  15939.925  0.21249138  -1.0709537   43504.602
  15950.020  0.21117452  -1.0723427   42886.602
  15959.959  0.21007653  -1.0737413   42454.602
  15970.079  0.20825514  -1.0764406   42043.602
  15980.045  0.20750268  -1.0774789   41385.602
  15990.021  0.20563607   -1.079089   41142.602
  16000.012   0.2044181  -1.0804993   40638.602
  16010.014  0.20298723  -1.0823084   40194.602
  16020.030  0.20144429  -1.0840347   39803.602
  16030.059  0.20014462  -1.0857786   39270.602
  16039.929  0.19900678  -1.0873116   38830.602
  16049.982  0.19826496  -1.0882983   38333.602
  16060.049  0.19709816  -1.0902182   37968.602
  16069.959  0.19714299  -1.0907252   37351.602
  16080.051  0.19797959  -1.0911325   36902.602
  16081.248  0.19817743  -1.0916154   36941.602
  16082.448  0.19863291  -1.0914668   36820.602
  16083.646  0.19881868  -1.0919511   36861.602
  16084.846  0.19955991  -1.0913138   36588.602
  16086.215  0.19976356  -1.0917523   36604.602
  16087.415  0.20097614  -1.0908908   36388.602
  16088.613  0.20172595  -1.0911466   36452.602
  16089.813  0.20315618  -1.0905074   36166.602
  16091.013  0.20463272  -1.0903974   36136.602
  16092.214  0.20668915  -1.0896619   36053.602
  16093.586  0.20958639  -1.0889674   35964.602
  16094.785  0.21323894  -1.0879177   35905.602
  16095.986  0.21946092  -1.0863354   35682.602
  16097.187  0.22849738  -1.0843182   35649.602
  16098.387  0.24340341  -1.0810494   35530.602
  16099.588  0.26392966  -1.0762315   35470.602
  16100.962  0.29804468  -1.0684671   35444.602
  16102.162  0.33516771  -1.0573468   35206.602
  16103.364  0.37451584  -1.0422327   35201.602
  16104.565  0.41941036  -1.0200817   35202.602
  16105.769  0.46092467 -0.99485532   35134.602
  16106.970  0.50023885 -0.96830322   34958.602
  16108.173   0.5240413 -0.94679331   34829.602
  16109.547  0.53066056 -0.92569387   34722.602
  16110.750  0.52154276 -0.91045998   34609.602
  16111.952  0.50801717 -0.90256568   34631.602
  16113.155  0.49338281 -0.90293087   34462.602
  16114.359  0.48011312 -0.90847325   34255.602
  16115.563  0.46759135 -0.91711485   34381.602
  16116.767  0.45953629 -0.92679903   34197.602
  16118.143  0.45244661 -0.93890949   34001.602
  16119.345  0.44658616 -0.94880372   33993.602
  16120.551   0.4407946 -0.95683734   34036.602
  16121.754  0.43527191 -0.96343459   33830.602
  16122.960  0.43001294  -0.9670612   33671.602
  16124.163  0.42469922 -0.96920415   33621.602
  16125.369  0.42017504 -0.97020563   33419.602
  16126.746  0.41563929 -0.97093902   33489.602
  16127.951  0.41297035 -0.97175258   33368.602
  16129.157  0.41218636 -0.97168335   33215.602
  16130.362   0.4131625 -0.97111388   33125.602
  16131.568  0.41517203 -0.97010914   32919.602
  16132.774  0.41768087 -0.96877465   32821.602
  16133.980  0.42039853 -0.96710143     32720.6
  16135.188  0.42349331  -0.9647303   32826.602
  16136.568  0.42823357 -0.96293999     32672.6
  16137.773  0.43260546 -0.96172752     32604.6
  16138.981  0.43709158 -0.95953685     32619.6
  16140.188  0.44154162 -0.95763878     32511.6
  16141.396  0.44667939  -0.9558034     32444.6
  16142.603  0.45103389 -0.95386066     32303.6
  16143.812  0.45465832 -0.95176749     32310.6
  16145.020  0.45804127 -0.95061574     32078.6
  16146.400  0.46079579 -0.94995883     31916.6
  16147.607  0.46020888 -0.94929205     31986.6
  16148.817  0.45856819 -0.94930559     31826.6
  16150.024  0.45600238 -0.94981123   63553.199
  16151.062  0.45377931 -0.95050402   63256.184
  16152.271  0.45072987 -0.95129532   62999.137
  16153.481  0.44768726 -0.95243936   62795.063
  16154.517  0.44541256 -0.95369923   62531.953
  16155.727   0.4427678 -0.95488641   62238.816
  16156.937  0.44080003 -0.95648544   61915.648
  16158.146  0.43906925 -0.95817504   61862.449
  16159.528   0.4373226 -0.96000471   61633.219
  16160.740  0.43566564  -0.9618457   61440.957
  16162.122   0.4345192 -0.96374914   61150.664
  16163.334  0.43302252 -0.96520735   60941.344
  16164.718  0.43129939 -0.96647087   60827.988
  16166.102   0.4295651 -0.96798442   60609.605
  16167.486  0.42750363 -0.96906322   60542.191
  16168.871  0.42504288 -0.97016318   60329.746
  16170.257  0.42236074 -0.97114151    60054.27
  16171.642  0.41944577 -0.97204558   59867.762
  16173.200   0.4165589 -0.97260815   59527.227
  16174.586   0.4144569 -0.97261547   59635.656
  16176.146  0.41311897 -0.97216334   59801.059
  16177.705  0.41282428 -0.97176263    59753.43
  16179.265  0.41337858 -0.97071437    59984.77
  16180.825  0.41551042 -0.96992598   60184.078
  16182.386  0.41838278 -0.96963586   60173.355
  16183.946  0.42129377 -0.96875885   60531.605
  16185.680  0.42498515 -0.96886332    60701.82
  16187.242  0.42784076 -0.96888808   60639.008
  16188.977  0.43105126 -0.96899739   60612.164
  16190.539   0.4329311 -0.96893616   60758.289
  16192.275  0.43443877 -0.96918756   60667.383
  16194.011  0.43473772 -0.96932352   60697.445
  16195.748  0.43447125  -0.9698589   60285.477
  16197.485  0.43376408  -0.9701223    60356.48
  16199.396  0.43265228 -0.97003605   60108.449
  16201.134  0.43162933  -0.9702189   60243.391
  16203.046  0.43003831 -0.97044792   60185.301
  16204.785  0.42819076 -0.97081875    60242.18
  16206.698   0.4259838 -0.97114839   60110.027
  16208.612  0.42377185 -0.97197439   60090.848
  16210.525  0.42123641  -0.9726155   60030.633
  16212.439   0.4188402 -0.97379669   59998.391
  16214.355   0.4163404 -0.97472765   59861.117
  16216.271  0.41420724 -0.97569883   60069.809
  16218.360  0.41234061 -0.97685968   59947.473
  16220.276  0.41073027 -0.97790446   60118.109
  16222.367  0.40976071 -0.97912756   60112.711
  16224.459  0.40913756 -0.97980727   60197.281
  16226.551  0.40930549 -0.98049087   60318.824
  16228.644  0.40971018  -0.9811265   60260.336
  16230.738  0.41036986 -0.98149385   60367.816
  16232.832  0.41123794 -0.98185985   60195.266
  16234.925  0.41184769 -0.98220958   60459.684
  16237.194  0.41212312 -0.98259303    60331.07
  16239.290  0.41198218  -0.9828791   60358.426
  16241.561  0.41151008 -0.98323412   60288.754
  16243.832  0.41098338 -0.98328735   60445.051
  16246.104  0.41075022 -0.98355432   60225.313
  16248.377  0.41067448 -0.98366525   60589.547
  16250.650  0.41051158  -0.9836423   60631.754
  16252.925  0.40982706 -0.98369802   60569.926
  16255.199  0.40921332 -0.98362202   60696.066
  16257.649  0.40883057 -0.98389947    60887.18
  16259.925  0.40878345 -0.98458361   61151.258
  16262.377  0.40899413 -0.98531288   61068.309
  16264.830  0.40958108 -0.98617592   61160.328
  16267.282    0.410006 -0.98676663   61102.316
  16269.737  0.40936561 -0.98689014   61259.273
  16272.192  0.40848279 -0.98724788   61285.203
  16274.646  0.40725347  -0.9875807   61210.098
  16277.279  0.40612821 -0.98762224   61274.965
  16279.736  0.40557734 -0.98808572   61428.801
  16282.369  0.40509635 -0.98834304   61823.605
  16284.828  0.40488314 -0.98883076   61768.379
  16287.463  0.40501052 -0.98975685   61770.121
  16290.099   0.4047037 -0.99058895   61942.832
  16292.735  0.40377842 -0.99115277   62045.516
  16295.373   0.4026598 -0.99207475   62034.164
  16298.013   0.4012547 -0.99289879   62040.785
  16300.827  0.39952583 -0.99341863   62067.375
  16303.468  0.39853962 -0.99413412   62185.934
  16306.286  0.39732081 -0.99466917   62435.461
  16309.104  0.39648375 -0.99536098   62563.957
  16311.748   0.3952059 -0.99596856   62526.426
  16314.567  0.39405771 -0.99647059   62720.859
  16317.388  0.39342962 -0.99701418   62713.266
  16320.211  0.39348085 -0.99719051   62629.641
  16323.212  0.39417793 -0.99746454   62750.984
  16326.035  0.39503804 -0.99779171   62630.297
  16328.861  0.39580952 -0.99800106   62934.578
  16331.863  0.39640811 -0.99842326   62893.832
  16334.867  0.39655367 -0.99880147   62985.051
  16337.696  0.39659045 -0.99915287   63252.242
  16340.703  0.39589888  -0.9997128   63186.402
  16343.710  0.39524049  -1.0002874   63474.531
  16346.719  0.39428089  -1.0010035   63419.629
  16349.905  0.39298248  -1.0016107   63387.695
  16352.918  0.39165558  -1.0025669   63578.734
  16355.929  0.39061487  -1.0031963   63627.738
  16359.119  0.38960176  -1.0040381   63837.715
  16362.312  0.38803152  -1.0047749    63744.66
  16365.326  0.38629466  -1.0051674    63873.57
  16368.521   0.3849825  -1.0057735   64005.457
  16371.717  0.38433048  -1.0062881   64126.309
  16374.914  0.38398518  -1.0067206   64174.129
  16378.111  0.38382407  -1.0069537   64770.922
  16381.488  0.38336957  -1.0077466    64614.68
  16384.689  0.38327292  -1.0084318    64377.41
  16388.068   0.3831718  -1.0092188   64549.109
  16391.271  0.38286606   -1.010061   64431.777
  16394.656  0.38258026  -1.0107643   64739.414
  16398.039  0.38234065  -1.0114312    64742.02
  16401.424  0.38353622  -1.0122605   65060.598
  16404.813  0.38404892  -1.0129355   65197.145
  16408.199  0.38153162  -1.0133159   65566.656
  16411.590  0.37989481  -1.0140859   65211.141
  16415.160  0.37920893  -1.0143538   65356.594
  16418.553  0.37827848  -1.0149724   65131.016
  16422.127  0.37744868  -1.0155996    65294.41
  16425.521  0.37712041  -1.0160711    65472.77
  16429.098  0.37671136  -1.0165892   65424.102
  16432.676  0.37572761  -1.0173822   65518.398
  16436.254  0.37694398  -1.0178269   65781.672
  16439.834  0.37636753  -1.0184121   66171.906
  16443.416  0.37290396  -1.0190141   65889.117
  16447.180  0.37285694  -1.0198094   65807.289
  16450.766  0.37236197  -1.0203623   66038.438
  16454.354  0.37208463   -1.021238   66273.555
  16458.121  0.37148742  -1.0219059   66633.641
  16461.891  0.37050744  -1.0224804   66486.688
  16465.662  0.36998328  -1.0233305   66575.711
  16469.438  0.36947502  -1.0240688   66840.711
  16473.211  0.36911654  -1.0248182   66581.672
  16476.988  0.36859552  -1.0254418   66907.602
  16480.768    0.367929  -1.0261222     66983.5
  16484.549  0.36686011  -1.0267428   66876.367
  16488.510  0.36523473  -1.0273978   66853.211
  16492.295  0.36399595  -1.0279699   67168.016
  16496.260  0.36302153  -1.0286017   67128.797
  16500.229  0.36221232  -1.0293408   67215.539
  16504.199  0.36183391   -1.029895   67180.258
  16508.172  0.36039639  -1.0303672   67364.945
  16512.145  0.36021094  -1.0310752   67696.602
  16516.121   0.3595593  -1.0319099   67499.227
  16520.100  0.35887671  -1.0325677   67763.813
  16524.080  0.35888305  -1.0336707   67287.375
  16528.242  0.35793539  -1.0339402   67337.914
  16532.227  0.35759065  -1.0348845   67703.414
  16536.393  0.35683522  -1.0352997   67764.883
  16540.563  0.35637128    -1.03611    67987.32
  16544.734  0.35580088  -1.0368518   68103.734
  16548.906  0.35501463  -1.0375582   68178.109
  16553.084  0.35390274   -1.037941   67976.461
  16557.262   0.3531622  -1.0388981   67865.773
  16561.441  0.35185552  -1.0399356   67930.063
  16565.807  0.35079565  -1.0406464   67921.313
  16569.990  0.34989246  -1.0411183   67836.539
  16574.357  0.34895672  -1.0420177   67953.734
  16578.549  0.34774968  -1.0424184   68299.898
  16582.922  0.34657644  -1.0429677   68134.031
  16587.297  0.34611969  -1.0438699   68123.133
  16591.674  0.34526398  -1.0445676   68130.203
  16596.055  0.34472852  -1.0451353   67827.242
  16600.438  0.34419362  -1.0460558   67822.258
  16604.822  0.34320272  -1.0468708   68137.234
  16609.393  0.34261086  -1.0474203    68511.18
  16613.783  0.34176015   -1.048243   68246.102
  16618.357  0.34090802  -1.0491046   68142.984
  16622.754  0.33991281  -1.0498465   68101.844
  16627.332  0.33890636  -1.0508417   68462.672
  16631.916  0.33805717  -1.0516967   68324.461
  16636.502  0.33728722  -1.0523592   68242.227
  16641.090  0.33672997  -1.0526019   68343.961
  16645.682  0.33572328  -1.0532365   68256.664
  16650.273  0.33514694  -1.0541282   68369.336
  16655.053  0.33444131   -1.055033   68356.977
  16659.652  0.33369336  -1.0558837   68436.586
  16664.254  0.33283394  -1.0565891   68225.172
  16669.043  0.33136453  -1.0573091   67898.719
  16673.832  0.33031561  -1.0584235   68443.234
  16678.625  0.32959699  -1.0591681   68565.727
  16683.420  0.32892578  -1.0599247    68352.18
  16688.221   0.3277511  -1.0607259   68437.609
  16693.023   0.3270502  -1.0616933   68508.008
  16697.828  0.32578835  -1.0623828   68315.367
  16702.635  0.32479652  -1.0629566   68459.703
  16707.445  0.32391686  -1.0637876   68415.008
  16712.445  0.32206452  -1.0642609   68436.281
  16717.260   0.3221538  -1.0653479   68431.523
  16722.264  0.32113602  -1.0661076   68018.734
  16727.271  0.32063315  -1.0669745   68189.914
  16732.281  0.31997324  -1.0678312   68233.063
  16737.295  0.31836448   -1.068391   68218.188
  16742.313  0.31836557  -1.0696032   68178.273
  16747.332    0.316992  -1.0701374   68043.328
  16752.355  0.31591182  -1.0708996   68175.359
  16757.381  0.31536717  -1.0720943   68250.352
  16762.596  0.31462504  -1.0727576    67921.32
  16767.629  0.31363074  -1.0734435   67730.258
  16772.852   0.3130657  -1.0742345   67716.156
  16777.889  0.31217338  -1.0751787   67371.031
  16783.117  0.31108092  -1.0760839   67569.875
  16788.348  0.31025395  -1.0767569   67810.688
  16793.584  0.30979368  -1.0779728   67931.469
  16798.822  0.30818186  -1.0785671   67964.219
  16804.063  0.30668775  -1.0791206   67471.938
  16809.309  0.30602487  -1.0798655   67495.633
  16814.744  0.30508912  -1.0809749   67491.289
  16819.996  0.30418454  -1.0817276   67568.914
  16825.438  0.30385436  -1.0822865   67541.516
  16830.697   0.3030135  -1.0832479   67248.078
  16836.146  0.30186117  -1.0838901   67438.617
  16841.600  0.30132537  -1.0845678   67216.125
  16847.059   0.2999957  -1.0854025   67264.594
  16852.330   0.2990744  -1.0863817   67115.039
  16857.982  0.29813882  -1.0871042   66878.453
  16863.451  0.29690669  -1.0881061   67028.836
  16868.922   0.2957252  -1.0890464   66944.188
  16874.396  0.29443602  -1.0898275   66770.508
  16880.064  0.29450798  -1.0909655   66538.797
  16885.547  0.29378943  -1.0916574   66657.055
  16891.223  0.29198077  -1.0922291   66465.289
  16896.711   0.2906949  -1.0927775   66716.484
  16902.396  0.28944009  -1.0937027   66800.656
  16908.082  0.28891208  -1.0946193   66421.789
  16913.773  0.28789737  -1.0954436   66565.898
  16919.469  0.28758732  -1.0967495   66505.969
  16925.166  0.28602433  -1.0974282   66444.016
  16930.869  0.28530675  -1.0983536   66502.031
  16936.576  0.28442021  -1.0994904   66429.016
  16942.287  0.28358465  -1.1002736   66385.961
  16948.191  0.28208311  -1.1010555   66327.883
  16953.910  0.28091408   -1.101433   66099.781
  16959.822   0.2804303  -1.1026484   65996.641
  16965.740  0.27910226  -1.1036381   65852.469
  16971.471  0.27857394  -1.1044784   65885.266
  16977.396  0.27774479  -1.1055492   65708.031
  16983.326  0.27643822  -1.1062437   65847.773
  16989.260  0.27538265  -1.1073118   66036.477
  16995.197  0.27409296  -1.1078354   65721.156
  17001.332  0.27327761  -1.1087591   65877.797
