# XDI/1.0  SSRL EXAFS Data Collector 1.1 AD.RGN
# Column.1: energy eV
# Column.2: mutrans
# Column.3: murefer
# Column.4: i0
# Beamline.name: SSRL 4-3 (?)
# Element.edge: K
# Element.symbol: Sr
# Mono.d_spacing: 1.92009
# Mono.name: Si(220)
# Mono.notes: (?) unfocussed, detuned 50%, clockwise at E=16800eV
# Sample.formula: SrAl2Si2O8
# Sample.name: slawsonite
# Sample.prep: powder mixed with B2O3
# Sample.reference: unknown
# Sample.temperature: 15K
# Scan.start_time: 1997-03-18 12:50:19
# ///
#    Note: mono d_spacing is nominal!
#--------------------------------------------
# energy     mutrans     murefer      i0
  15700.043  0.26510993  -1.0174789   37011.602
  15709.991  0.26283712  -1.0203907   36979.602
  15719.954  0.26078158  -1.0224681   36502.602
  15729.931   0.2588709  -1.0241269   36010.602
  15739.919  0.25701747  -1.0250218   35611.602
  15749.921  0.25481959  -1.0277454   35667.602
  15759.935  0.25304896  -1.0297512   35166.602
  15769.963  0.25112813  -1.0316158   34799.602
  15780.002  0.24945373   -1.033848   34316.602
  15790.057  0.24755975   -1.035356   33927.602
  15799.958  0.24577476  -1.0375642   33621.602
  15810.037  0.24366507   -1.039792   33420.602
  15819.965  0.24217994  -1.0415395   32885.602
  15830.071  0.24029402  -1.0434269     32556.6
  15840.023  0.23872432  -1.0452796     32218.6
  15849.989  0.23688465  -1.0472911     31790.6
  15859.968  0.23500036  -1.0493358     31505.6
  15869.959  0.23333839  -1.0512515     31065.6
  15879.964  0.23160971  -1.0531211     30763.6
  15889.980  0.23013601  -1.0549728     30223.6
  15900.011  0.22836368  -1.0573164     29981.6
  15910.055  0.22673486  -1.0592652     29596.6
  15919.941  0.22510203  -1.0615163     29311.6
  15930.011  0.22337992  -1.0634953     28983.6
  15939.925  0.22211892  -1.0655038     28678.6
  15950.020  0.22046959  -1.0675449     28253.6
  15959.959  0.21887483  -1.0696609     28086.6
  15970.079  0.21726853   -1.071533     27688.6
  15980.045  0.21553686   -1.073345     27325.6
  15990.021  0.21436292  -1.0757165     26946.6
  16000.012  0.21252781  -1.0774556     26601.6
  16010.014  0.21119702  -1.0796857     26347.6
  16020.030  0.20885613  -1.0810798     26087.6
  16030.059  0.20734762  -1.0832107     25729.6
  16039.929  0.20627663   -1.084822     25361.6
  16049.982  0.20494932  -1.0867912     25061.6
  16060.049  0.20437772  -1.0888053     24713.6
  16069.959  0.20374216  -1.0900273     24419.6
  16080.051  0.20459067  -1.0910062     24225.6
  16081.248  0.20458047   -1.091027     24345.6
  16082.448  0.20482535    -1.09062     24092.6
  16083.646  0.20521651   -1.090712     24277.6
  16084.846  0.20561324   -1.090417     24068.6
  16086.215  0.20623651  -1.0904371     24142.6
  16087.415  0.20714275  -1.0902912     23940.6
  16088.613   0.2077537  -1.0901391     23818.6
  16089.813  0.20919049  -1.0902745     23941.6
  16091.013  0.21051957  -1.0894582     23921.6
  16092.214  0.21282972  -1.0891258     23839.6
  16093.586  0.21574175  -1.0882298     23777.6
  16094.785  0.21956118   -1.087159     23726.6
  16095.986  0.22586202  -1.0859153     23703.6
  16097.187  0.23454324  -1.0837082     23696.6
  16098.387  0.24965518  -1.0805532     23519.6
  16099.588  0.26987318  -1.0758022     23537.6
  16100.962  0.30424971  -1.0675753     23536.6
  16102.162  0.34049278  -1.0564317     23536.6
  16103.364  0.37925186  -1.0412881     23550.6
  16104.565  0.42423242  -1.0186964     23692.6
  16105.769  0.46512794 -0.99326995     23291.6
  16106.970  0.50446234 -0.96521187     23351.6
  16108.173  0.52813871 -0.94270363     23300.6
  16109.547  0.53492694 -0.92075883     23317.6
  16110.750  0.52585294 -0.90465709     23059.6
  16111.952   0.5132603 -0.89633312     23001.6
  16113.155  0.49985954 -0.89573077     23041.6
  16114.359  0.48685841 -0.89989389     23116.6
  16115.563  0.47425764 -0.90825985     23029.6
  16116.767  0.46564863 -0.91810653     23104.6
  16118.143  0.45815786 -0.93036206     23047.6
  16119.345  0.45197149 -0.94090514     23051.6
  16120.551   0.4468776 -0.94986762     22826.6
  16121.754  0.44099037 -0.95711115     22835.6
  16122.960  0.43552576 -0.96092299     22675.6
  16124.163   0.4303311 -0.96332513     22842.6
  16125.369  0.42553869 -0.96397167     22693.6
  16126.746  0.42145402 -0.96543781     22727.6
  16127.951  0.41831357 -0.96589309     22598.6
  16129.157   0.4176081 -0.96597976     22494.6
  16130.362  0.41872764 -0.96545712     22656.6
  16131.568  0.42040427 -0.96456273     22423.6
  16132.774  0.42331064 -0.96337047     22134.6
  16133.980  0.42584345 -0.96141836     22357.6
  16135.188  0.42911456 -0.95942178     22398.6
  16136.568  0.43351846  -0.9571344     22267.6
  16137.773  0.43734607 -0.95546757     22292.6
  16138.981  0.44178671 -0.95337943     22203.6
  16140.188  0.44605617 -0.95146046     22298.6
  16141.396  0.45175823 -0.94980611     22160.6
  16142.603  0.45586413  -0.9474818     22095.6
  16143.812   0.4599637 -0.94561179     22143.6
  16145.020  0.46252339 -0.94362078     22087.6
  16146.400  0.46391431 -0.94218084     22043.6
  16147.607  0.46411615 -0.94240742     22022.6
  16148.817  0.46212007 -0.94213108     21913.6
  16150.024   0.4594107 -0.94229544   43729.199
  16151.062  0.45717503 -0.94291837   43734.184
  16152.271  0.45412865 -0.94381776   43571.137
  16153.481  0.45084829 -0.94504133   43615.063
  16154.517  0.44843194 -0.94614702   43482.953
  16155.727  0.44595357 -0.94741828   43432.816
  16156.937  0.44381242 -0.94919036   43102.648
  16158.146  0.44202392 -0.95072384   43157.449
  16159.528   0.4404297 -0.95293373   43161.219
  16160.740  0.43899101 -0.95508688   42744.957
  16162.122  0.43754578 -0.95725305   42668.664
  16163.334  0.43587901 -0.95882128   42694.344
  16164.718  0.43433018 -0.96005668   42889.988
  16166.102  0.43273779 -0.96143718   42492.605
  16167.486  0.43058849 -0.96261733   42408.191
  16168.871  0.42870523 -0.96392346   42339.746
  16170.257  0.42555975 -0.96500941    42406.27
  16171.642   0.4225411 -0.96535386   42446.762
  16173.200  0.41940029 -0.96606484   42326.227
  16174.586  0.41734116 -0.96602562   42125.656
  16176.146  0.41603726  -0.9657657   42168.059
  16177.705  0.41558347 -0.96475292    42426.43
  16179.265  0.41626697 -0.96423402    42658.77
  16180.825  0.41860581  -0.9636804   42593.078
  16182.386  0.42108336 -0.96312707   42834.355
  16183.946  0.42435703 -0.96261693   43286.605
  16185.680  0.42748155 -0.96218481    43346.82
  16187.242  0.43085237 -0.96230289   43533.008
  16188.977  0.43372047 -0.96231114   43491.164
  16190.539   0.4358101 -0.96244879   43396.289
  16192.275  0.43708972 -0.96255953   43496.383
  16194.011   0.4373949 -0.96258909   43659.445
  16195.748  0.43715286 -0.96302273   43651.477
  16197.485   0.4361932 -0.96306042    43590.48
  16199.396  0.43526415 -0.96314679   43756.449
  16201.134  0.43453972 -0.96355371   43543.391
  16203.046  0.43302232 -0.96383657   43612.301
  16204.785  0.43093022 -0.96383933    43514.18
  16206.698  0.42877984  -0.9642689   43819.027
  16208.612  0.42671743 -0.96487372   43753.848
  16210.525  0.42494457 -0.96575041   43690.633
  16212.439  0.42310032 -0.96702947   43885.391
  16214.355  0.42059335 -0.96778496   43890.117
  16216.271  0.41826107 -0.96896234   44032.809
  16218.360  0.41623384 -0.97035127   43857.473
  16220.276  0.41480416 -0.97123853   44128.109
  16222.367  0.41324996 -0.97222424   44059.711
  16224.459  0.41304694  -0.9733947   44043.281
  16226.551   0.4133118 -0.97397337   44293.824
  16228.644  0.41322166 -0.97432155   44362.336
  16230.738  0.41401717  -0.9746628   44666.816
  16232.832  0.41510934 -0.97531491   44853.266
  16234.925  0.41589511 -0.97557312   44686.684
  16237.194  0.41589815 -0.97598123    44885.07
  16239.290  0.41554802 -0.97632283   44514.426
  16241.561  0.41527541 -0.97645189   44542.754
  16243.832  0.41488881 -0.97660268   44740.051
  16246.104     0.41411 -0.97617513   45013.313
  16248.377  0.41425064 -0.97633771   45079.547
  16250.650  0.41329525 -0.97650097   44964.754
  16252.925  0.41305685 -0.97638598   45170.926
  16255.199  0.41267972 -0.97650061   45082.066
  16257.649  0.41237823 -0.97701336    45152.18
  16259.925   0.4122657 -0.97762913   45161.258
  16262.377  0.41207253 -0.97793833   45346.309
  16264.830  0.41216608 -0.97839191   45476.328
  16267.282  0.41179379 -0.97896573   45624.316
  16269.737  0.41132968 -0.97925786   45828.273
  16272.192  0.41080685  -0.9794931   45830.203
  16274.646  0.40987932 -0.97969681   45833.098
  16277.279  0.40854425 -0.98002995   45899.965
  16279.736   0.4078994 -0.98045812   46226.801
  16282.369  0.40752243  -0.9810158   46078.605
  16284.828  0.40753718 -0.98166363   46157.379
  16287.463  0.40773904 -0.98238549   46410.121
  16290.099  0.40692746 -0.98299348   46409.832
  16292.735   0.4062238 -0.98383009   46492.516
  16295.373  0.40483839 -0.98467861   46693.164
  16298.013   0.4033451 -0.98524213   47245.785
  16300.827  0.40166931 -0.98579578   47523.375
  16303.468  0.40071812 -0.98633507   47320.934
  16306.286  0.39972757 -0.98740259   47109.461
  16309.104  0.39830309 -0.98797439   47154.957
  16311.748  0.39725717 -0.98865702   47292.426
  16314.567  0.39618211 -0.98923982   47240.859
  16317.388  0.39566993 -0.98966373   47529.266
  16320.211  0.39595389 -0.98976883   47724.641
  16323.212   0.3967085 -0.99029539   47616.984
  16326.035  0.39743617  -0.9902859   48003.297
  16328.861  0.39861874 -0.99045717   48197.578
  16331.863  0.39881539 -0.99069593   48144.832
  16334.867  0.39915898 -0.99116403   48181.051
  16337.696  0.39900976 -0.99162471   48229.242
  16340.703  0.39878389 -0.99263014   48385.402
  16343.710  0.39813409 -0.99346321   48428.531
  16346.719  0.39698053  -0.9940706   48503.629
  16349.905  0.39580047 -0.99453983   48777.695
  16352.918  0.39420844 -0.99511886   49122.734
  16355.929   0.3932975 -0.99620566   49006.738
  16359.119  0.39199533 -0.99685457   49093.715
  16362.312  0.39019947 -0.99734017    49148.66
  16365.326   0.3888512 -0.99794563    49651.57
  16368.521  0.38739972 -0.99870243   49508.457
  16371.717  0.38727751 -0.99917094   49755.309
  16374.914  0.38648272 -0.99945784   49618.129
  16378.111  0.38612637 -0.99966883   49699.922
  16381.488  0.38614242  -1.0006496    49951.68
  16384.689  0.38581331  -1.0013127    50193.41
  16388.068  0.38527688  -1.0017588   50564.109
  16391.271  0.38468025  -1.0020566   50359.777
  16394.656  0.38411749  -1.0028781   50615.414
  16398.039   0.3841007   -1.003971    50549.02
  16401.424  0.38376444  -1.0045952   50846.598
  16404.813  0.38316806  -1.0051486   50752.145
  16408.199  0.38231876  -1.0059656   51018.656
  16411.590  0.38161039  -1.0066819   51321.141
  16415.160  0.38051974  -1.0068781   51139.594
  16418.553  0.37994311   -1.007107   51391.016
  16422.127  0.37893109  -1.0078757    51105.41
  16425.521  0.37822984  -1.0086124    51498.77
  16429.098  0.37730355  -1.0090033   51502.102
  16432.676  0.37598774   -1.009546   51865.398
  16436.254  0.37506104  -1.0098573   52093.668
  16439.834  0.37459855  -1.0106639   52179.906
  16443.416   0.3745464  -1.0112229   52043.113
  16447.180  0.37391758  -1.0115716   52190.293
  16450.766  0.37397209  -1.0125294   52358.438
  16454.354  0.37343564  -1.0133394   52755.551
  16458.121  0.37290362  -1.0143054   52661.637
  16461.891  0.37204779   -1.014774   52875.691
  16465.662  0.37093625  -1.0154586   53046.715
  16469.438  0.37034703  -1.0160702   52904.707
  16473.211  0.36941534  -1.0164873   52977.668
  16476.988  0.36884926  -1.0171413   53101.602
  16480.768  0.36822837  -1.0179734     53430.5
  16484.549  0.36721111   -1.018497   53333.371
  16488.510  0.36624269  -1.0194635   53644.211
  16492.295  0.36483649  -1.0198582    53791.02
  16496.260  0.36331941  -1.0205865   53860.797
  16500.229  0.36304686  -1.0212392   53646.543
  16504.199  0.36242667  -1.0216585   53823.258
  16508.172  0.36152506  -1.0227032   54374.945
  16512.145  0.36050577  -1.0233651   54461.598
  16516.121  0.35972294  -1.0238847   54350.223
  16520.100  0.36014781  -1.0245385   54156.816
  16524.080  0.36015596   -1.025387   54961.379
  16528.242  0.36007321  -1.0261684    54983.91
  16532.227  0.35931065  -1.0268814    54801.41
  16536.393  0.35868206  -1.0272711   54647.883
  16540.563  0.35714462  -1.0279219    54902.32
  16544.734  0.35656708  -1.0287286    55488.73
  16548.906  0.35589104  -1.0293529   55385.109
  16553.084  0.35486192  -1.0299878   55340.457
  16557.262  0.35366657  -1.0305933   55508.773
  16561.441  0.35269063  -1.0313967   55508.063
  16565.807   0.3514624  -1.0319661   55996.316
  16569.990  0.35062652  -1.0323413   55704.543
  16574.357  0.34998671  -1.0332934   55744.734
  16578.549  0.34884051  -1.0339715   56110.898
  16582.922  0.34804434  -1.0347251   56180.031
  16587.297   0.3478126  -1.0353907   55945.133
  16591.674  0.34665169  -1.0362301   56217.203
  16596.055  0.34565397  -1.0368454   56205.246
  16600.438   0.3453437  -1.0379001   56459.254
  16604.822  0.34435167  -1.0386336   56502.234
  16609.393  0.34390902   -1.039356   56535.184
  16613.783  0.34340251  -1.0402381   56749.102
  16618.357   0.3421254  -1.0406512   56694.988
  16622.754  0.34118585  -1.0415186   56970.844
  16627.332  0.34027302  -1.0423179   57001.668
  16631.916   0.3394462  -1.0431524   57048.465
  16636.502  0.33867043  -1.0439312    57290.23
  16641.090  0.33815818   -1.044693   57233.961
  16645.682  0.33744489  -1.0454756   57457.664
  16650.273  0.33665891  -1.0463811   57486.336
  16655.053   0.3355675  -1.0471614    57632.98
  16659.652  0.33438959  -1.0478379    57768.59
  16664.254  0.33375552  -1.0484731   57741.168
  16669.043  0.33243354  -1.0495338   57598.719
  16673.832  0.33158587  -1.0505288   57790.238
  16678.625  0.33095151  -1.0511563   58025.727
  16683.420   0.3297312  -1.0517795   58157.184
  16688.221  0.32907348  -1.0526544   58369.609
  16693.023  0.32817291  -1.0535593   58405.004
  16697.828  0.32720687  -1.0544888   58332.371
  16702.635   0.3257985  -1.0549515   58261.703
  16707.445  0.32532134  -1.0558819   58626.008
  16712.445  0.32453348  -1.0566571   58595.281
  16717.260  0.32371817  -1.0574558   58561.523
  16722.264  0.32340361  -1.0585465   58975.734
  16727.271  0.32238877  -1.0591412   58806.914
  16732.281  0.32200918  -1.0602904   58917.066
  16737.295  0.32082929  -1.0610545   58806.184
  16742.313  0.32008281   -1.062132   59047.273
  16747.332  0.31914542  -1.0630678   58891.332
  16752.355  0.31754574   -1.063355   58912.359
  16757.381   0.3163415  -1.0639782   58753.355
  16762.596  0.31533186  -1.0647543    58862.32
  16767.629    0.315129  -1.0663497   59291.254
  16772.852  0.31380605   -1.066936    58970.16
  16777.889  0.31257784  -1.0673147   58617.035
  16783.117  0.31245453  -1.0689437   59166.875
  16788.348   0.3114809  -1.0695501   59265.688
  16793.584  0.31040426  -1.0700408   59078.469
  16798.822    0.309611  -1.0710601   59231.223
  16804.063  0.30799116  -1.0717789   59584.941
  16809.309  0.30702691  -1.0725056   59420.629
  16814.744   0.3060521  -1.0733779   59314.289
  16819.996  0.30521629  -1.0742354   59195.918
  16825.438  0.30421989  -1.0747957   59313.516
  16830.697   0.3028034   -1.075154   59491.082
  16836.146  0.30162077  -1.0759044   59442.617
  16841.600  0.30076499  -1.0770298   59381.121
  16847.059   0.3002359  -1.0781625   59626.598
  16852.330  0.29962604  -1.0791266   59597.039
  16857.982  0.29833082  -1.0798986   59479.453
  16863.451  0.29620338  -1.0804001   59453.836
  16868.922  0.29603717  -1.0815773   59687.188
  16874.396  0.29511238  -1.0824398   59677.508
  16880.064   0.2944791  -1.0832809   59636.801
  16885.547  0.29371693   -1.084349   59866.059
  16891.223  0.29369442  -1.0853491   59573.289
  16896.711  0.29182562  -1.0860363   59662.484
  16902.396  0.29095265  -1.0869149   59616.652
  16908.082  0.29051178  -1.0880071   59565.789
  16913.773  0.28928987  -1.0889874   59752.895
  16919.469  0.28809085  -1.0894844   59625.973
  16925.166  0.28721981  -1.0905926   59632.016
  16930.869  0.28633176  -1.0910685   59814.027
  16936.576  0.28479381   -1.091839   59825.012
  16942.287  0.28439238  -1.0926965   59754.965
  16948.191  0.28327397  -1.0937722   59924.887
  16953.910  0.28175131  -1.0943641   59828.777
  16959.822  0.28119399  -1.0958418   59864.637
  16965.740  0.27995742  -1.0964638   59805.469
  16971.471  0.27852038  -1.0967488   59812.266
  16977.396  0.27722865  -1.0979096   59846.035
  16983.326  0.27633967  -1.0991827   59924.773
  16989.260  0.27610046   -1.100088    59881.48
  16995.197  0.27581631  -1.1007321   60000.156
  17001.332  0.27498345  -1.1019375   60027.801
