# XDI/1.0 EXAFS Data Collector 1.1 AD.RGN
# Column.1: energy eV
# Column.2: mutrans
# Column.3: mufluor
# Column.4: murefer
# Column.5: i0
# Beamline.name: SSRL 4-3
# Detector.I0: N2 15cm
# Detector.I1: N2+Ar 30cm
# Detector.If: Ar (Lytle detector, using Rb filter)
# Detector.I2: Ar
# Element.edge: K
# Element.symbol: Sr
# Mono.d_spacing: 1.920128
# Mono.name: Si(220)
# Mono.notes: (?) unfocussed, detuned 50%, clockwise at E=17000eV
# Sample.formula: SrTiO3
# Sample.name: strontium titanate
# Sample.prep: powder
# Sample.reference: SrCO3
# Sample.temperature: room temperature
# Scan.start_time: 1995-06-14 20:43:05
# ///
#    Note: mono d_spacing is nominal!
#-------------
#   energy   mutrans      mufluor     murefer      i0
  15699.933  -1.6273158  0.34053224   1.0780209   219065.59
  15710.044  -1.6296259    0.336584   1.0768566   217811.59
  15719.844   -1.631948  0.33265203   1.0757816   216691.59
  15729.982  -1.6343375  0.32800519    1.074566   215453.59
  15740.136  -1.6367784  0.32379794    1.073418   214565.59
  15749.973  -1.6391063  0.32085374    1.072279   213305.59
  15760.152  -1.6416787  0.31715889   1.0710705   209443.59
  15770.016  -1.6442039  0.31186525   1.0701011   211164.59
  15779.891  -1.6461159  0.30680986    1.068867   210403.59
  15790.109  -1.6485722  0.30286978   1.0677331   209221.59
  15800.011  -1.6509918  0.29907885   1.0664889   208088.59
  15809.925   -1.653314  0.29484707   1.0654281   207198.59
  15819.854  -1.6556518  0.29177647   1.0642021   206198.59
  15830.124  -1.6580669  0.28625203   1.0629941   204850.59
  15840.076  -1.6604138  0.28268452   1.0619095   204018.59
  15850.042  -1.6627735  0.27964561   1.0606518   202795.59
  15860.021  -1.6650925  0.27604783   1.0595954   201830.59
  15870.012  -1.6674826  0.27269559   1.0583814   200578.59
  15880.018  -1.6697893  0.26950938   1.0572643   199506.59
  15890.033  -1.6721146  0.26674434   1.0560337   198335.59
  15900.063  -1.6745398  0.26409277   1.0548183   197441.59
  15910.108  -1.6768492  0.26061768   1.0536955   196417.59
  15920.164  -1.6791989  0.25786245   1.0525255   195231.59
  15929.896  -1.6814201  0.25583576   1.0514231   194147.59
  15939.978   -1.683811   0.2533595   1.0501622   193183.59
  15950.073  -1.6862352  0.25172892    1.048977   192027.59
  15959.844  -1.6883561  0.24947308   1.0479363   190733.59
  15969.964  -1.6907719  0.24901727   1.0465024   189777.59
  15980.097  -1.6929993    0.248147   1.0455282   188613.59
  15989.906  -1.6951319  0.24787295   1.0443183   187583.59
  16000.064  -1.6974828  0.24772515   1.0431424   186605.59
  16009.897  -1.6996016  0.24823562   1.0419907   185617.59
  16020.082  -1.7019878  0.25050001   1.0408461   184494.59
  16029.942  -1.7040382  0.25219545   1.0396413   183333.59
  16040.152  -1.7061104  0.25632765   1.0384355   182176.59
  16050.036  -1.7081929  0.26153492    1.037338   181275.59
  16059.933  -1.7100748   0.2681357   1.0362081   180031.59
  16069.841  -1.7117827  0.27893083   1.0351321   178857.59
  16080.104  -1.7134524  0.29524355   1.0339836   177754.59
  16090.039  -1.7145402  0.31894408   1.0329977   176842.59
  16099.984  -1.7148218  0.35699103   1.0321281   175673.59
  16109.943  -1.7133671  0.42902284   1.0315125   174533.59
  16119.917  -1.7063031  0.60060625    1.031858   173429.59
  16121.293  -1.7048919   0.6343118    1.032086   173116.59
  16122.670  -1.7027342  0.67840359   1.0323244   173029.59
  16123.702  -1.7008135  0.71732333     1.03263   172800.59
  16125.079  -1.6972899  0.78828386   1.0329284   172767.59
  16126.112  -1.6939048  0.85189039    1.033591   172795.59
  16127.490  -1.6877479  0.97114121   1.0345912   172553.59
  16128.867  -1.6785195   1.1424062   1.0361452   172452.59
  16129.901  -1.6687869   1.3225166   1.0377854   172500.59
  16131.278  -1.6487215   1.6794365   1.0414296   172144.59
  16132.657  -1.6190766   2.1979633   1.0477168   172141.59
  16133.690  -1.5883118   2.7214093   1.0541208   172065.59
  16135.069  -1.5260118   3.7339947   1.0660507   171761.59
  16136.104  -1.4679718   4.6271758   1.0759347   171606.59
  16137.483  -1.3716152   5.9839839   1.0906407   171308.59
  16138.861  -1.2592827   7.4399334   1.1068553   171427.59
  16139.897  -1.1658194   8.1141401   1.1196287   171106.59
  16141.276  -1.0401908   8.1161498   1.1365031   171064.59
  16142.657 -0.95227725   8.1239975   1.1501943   170899.59
  16143.692 -0.92252744   8.1293251   1.1557234   170787.59
  16145.073 -0.93106771   8.1369364   1.1563202   170627.59
  16146.108 -0.97121083    8.137717   1.1525399   170611.59
  16147.490  -1.0549984   8.1547572   1.1436207   170254.59
  16148.871  -1.1395824    8.164396   1.1341582   170053.59
  16149.907  -1.1880518   8.0289445   1.1277649   169708.59
  16151.289  -1.2322584   7.5281934   1.1202123   169611.59
  16152.670  -1.2482624    7.369626   1.1148403   169589.59
  16153.707  -1.2474036   7.4005273    1.111806   169685.59
  16155.090  -1.2380216   7.5278571   1.1084918   338490.19
  16155.779  -1.2332101   7.5911411    1.107444   338262.16
  16156.473  -1.2281394   7.6512723   1.1063382   337899.06
  16157.162  -1.2238665   7.7034384   1.1054161   338191.91
  16157.854  -1.2207146   7.7377283    1.104522   338100.69
  16158.547  -1.2189688   7.7558772   1.1038245   338232.41
  16159.237  -1.2186953   7.7595517   1.1033325   338292.06
  16160.274  -1.2207647   7.7360228   1.1029749   338449.66
  16160.968  -1.2227065   7.7151851   1.1028719   338331.19
  16161.659  -1.2246004   7.6992929   1.1029846   339130.66
  16162.695  -1.2259613   7.6879984    1.103562   339209.06
  16163.389  -1.2253575   7.7039717   1.1040797   339419.37
  16164.426   -1.221628   7.7594835   1.1052598   339817.66
  16165.465   -1.215122   7.8495491   1.1066179   339467.87
  16166.157  -1.2099096   7.9177647   1.1074359   339249.03
  16167.195  -1.1994856   8.0469872    1.108783   338353.09
  16168.234  -1.1872157   8.2019157   1.1096545   339399.12
  16169.271  -1.1736501   8.3198923   1.1105336   339590.09
  16170.311  -1.1589586   8.3175361   1.1114039      340229
  16171.349  -1.1446017   8.3175873   1.1124371   340959.81
  16172.388  -1.1312342   8.3172273   1.1136518   341748.59
  16173.428  -1.1199895   8.3122195   1.1148165   342769.28
  16174.466   -1.112319   8.3040311   1.1159639   343963.94
  16175.506  -1.1099132   8.3090471   1.1167924   344612.53
  16176.545  -1.1132858   8.3135279   1.1176197   345364.03
  16177.932  -1.1266669   8.3234628   1.1184549    345928.5
  16178.971  -1.1406644   8.3247597   1.1189907   346891.87
  16180.012  -1.1561216   8.3324182   1.1195047   347589.22
  16181.399  -1.1748161   8.3451237   1.1200661   348363.47
  16182.440  -1.1839694   8.2585947   1.1201856   349090.69
  16183.826  -1.1885401   8.2244456   1.1200085   349604.81
  16185.214  -1.1834777   8.3018178   1.1195999   350613.91
  16186.254  -1.1753925   8.3785078   1.1190697   351653.91
  16187.644  -1.1617028   8.3871287   1.1177153   352391.87
  16189.030  -1.1501758   8.3921456   1.1160158   353470.75
  16190.419  -1.1449085   8.4073765   1.1138336   354200.59
  16191.809  -1.1479275   8.4116612   1.1117676   355389.34
  16193.197  -1.1587077    8.419469   1.1098518   356518.03
  16194.587  -1.1745768   8.4067278   1.1084381   357572.69
  16195.976   -1.191534   8.2185036   1.1075371   358543.25
  16197.366  -1.2068228   8.0422667   1.1067113   359916.75
  16198.755  -1.2187162   7.9156182   1.1061315   361390.22
  16200.493   -1.228787   7.8021534   1.1052657   362059.59
  16201.884  -1.2337925   7.7512183   1.1046983   363411.91
  16203.274  -1.2375737    7.708747   1.1040722   365081.16
  16205.013  -1.2411124   7.6774272   1.1037268   366100.34
  16206.405    -1.24243   7.6687548   1.1036153    367229.5
  16208.145  -1.2406796   7.7058333   1.1040477   368792.56
  16209.884  -1.2339414   7.8016901   1.1046052   370184.56
  16211.276   -1.225389    7.919361   1.1051015    371467.5
  16213.016  -1.2116491   8.0939528    1.105595   373030.37
  16214.757  -1.1977181   8.2654455    1.105946   374701.19
  16216.499  -1.1861906   8.4084432   1.1059934   375894.94
  16218.240  -1.1780396   8.5039981   1.1059613   377532.66
  16219.981  -1.1735357   8.5614774   1.1057886   378584.28
  16221.725  -1.1713246   8.5942336   1.1056231   379984.84
  16223.468   -1.169811   8.6184118   1.1055874   381455.34
  16225.210   -1.167879    8.647267   1.1053877   382808.78
  16226.954  -1.1658001   8.6806162    1.105335   383661.16
  16228.698  -1.1652418   8.6982491   1.1050988   384623.47
  16230.792  -1.1693965   8.6582187   1.1048992   385522.72
  16232.535  -1.1773821   8.5627517   1.1047723   387089.87
  16234.281  -1.1877162   8.4401706   1.1048154      387840
  16236.376  -1.2002611   8.2902099   1.1048386   390009.06
  16238.122  -1.2088741   8.1886439   1.1047757   391567.06
  16240.217  -1.2173394   8.0933799   1.1043049      393942
  16242.313  -1.2239034   8.0200863    1.103575   396003.87
  16244.061   -1.228212   7.9807026    1.102969   398823.69
  16246.159  -1.2326657   7.9453736   1.1021033   401783.41
  16248.257  -1.2364679   7.9155547   1.1013191   404922.09
  16250.354  -1.2400599    7.887604   1.1004536   407585.72
  16252.454  -1.2426912    7.869779   1.0994776   410477.28
  16254.553  -1.2433051   7.8768665   1.0988381   413055.78
  16256.653  -1.2415272   7.9161487   1.0988383   414776.19
  16258.753  -1.2381485   7.9642349   1.0988311   416663.56
  16260.855  -1.2345682   8.0127265   1.0982917   418575.87
  16262.957  -1.2311445   8.0593264   1.0976234   419927.09
  16265.059  -1.2275003   8.1089163   1.0974123   421934.28
  16267.162   -1.222828   8.1714217   1.0971042   423604.41
  16269.616  -1.2164216   8.2588129   1.0967733   425813.44
  16271.719  -1.2114956   8.3256186   1.0963796   428120.44
  16274.174  -1.2070793   8.3917165   1.0959799   430995.34
  16276.280  -1.2049867   8.4281165   1.0957431   433293.22
  16278.736   -1.204533   8.4451761   1.0955648      435955
  16280.844  -1.2064689   8.4297047   1.0953983   438416.75
  16283.301  -1.2118519   8.3756073   1.0954361   441225.41
  16285.760  -1.2192095   8.2948844   1.0954885   444080.03
  16288.220  -1.2273666   8.2023699   1.0954604   446789.56
  16290.328  -1.2336916   8.1355081   1.0952186   449246.06
  16292.790  -1.2395899   8.0809702   1.0949122   451919.47
  16295.252  -1.2429346   8.0498179   1.0945411   454284.84
  16297.715  -1.2441701    8.048726   1.0941598   456219.12
  16300.179  -1.2443497   8.0576928   1.0938363   458644.34
  16302.994  -1.2438162   8.0773658   1.0937116   461463.53
  16305.459  -1.2423736   8.1067255    1.093621   463834.62
  16307.925  -1.2401656   8.1427228   1.0935024   466146.69
  16310.392   -1.237849   8.1826767    1.093183   468599.66
  16313.211  -1.2364494   8.2100413   1.0928426   471327.56
  16315.680  -1.2372262   8.2124005   1.0923537   473532.41
  16318.148  -1.2399159   8.1876535   1.0918984   476960.22
  16320.972  -1.2436458   8.1569077   1.0913921   479679.94
  16323.442  -1.2455799   8.1458498   1.0910184   482249.59
  16326.268  -1.2451112   8.1666681   1.0904853   484545.19
  16329.092   -1.242879   8.2086356   1.0898293   487053.72
  16331.564  -1.2410339   8.2393788   1.0893614   490133.22
  16334.393  -1.2403774   8.2579416    1.088811   492355.62
  16337.221  -1.2409956   8.2617607   1.0883009   495061.97
  16340.050   -1.241412   8.2689901   1.0878732   497926.25
  16342.881  -1.2410196   8.2897371   1.0873481   500474.47
  16345.713  -1.2404546   8.3069794   1.0868771   503108.62
  16348.544  -1.2411955   8.3069161   1.0864412   505723.72
  16351.378  -1.2440854   8.2846582    1.086095   508416.75
  16354.211   -1.248673   8.2448143   1.0859113   511441.72
  16357.047  -1.2537647   8.1942473   1.0857462   513641.62
  16360.238  -1.2593283    8.140885   1.0856651   515993.47
  16363.076  -1.2630008   8.1073946   1.0856162   519239.25
  16365.914  -1.2647941    8.099375    1.085444   522190.97
  16369.107  -1.2642513   8.1246516   1.0852052   525131.62
  16371.948  -1.2625251   8.1578882   1.0848572   527604.25
  16375.146  -1.2604643   8.1991247   1.0843649   530639.75
  16377.989  -1.2594687   8.2227154     1.08384   533966.19
  16381.188  -1.2594002   8.2383955   1.0833074   536398.62
  16384.389  -1.2594003   8.2506726   1.0827563   539360.94
  16387.234  -1.2588635   8.2686191    1.082272   541994.25
  16390.438  -1.2580046   8.2959666   1.0817346   544909.44
  16393.641   -1.258201   8.3064966   1.0812016   547614.62
  16396.848  -1.2599013    8.298476   1.0806734   550603.69
  16400.055  -1.2626864    8.279124   1.0802524   553626.69
  16403.262  -1.2658098   8.2577796   1.0798769   556368.69
  16406.471  -1.2685451   8.2366651   1.0795101   558696.56
  16409.684  -1.2708056   8.2207686   1.0791999   561300.37
  16412.895  -1.2723313   8.2172237   1.0788103   564091.19
  16416.107  -1.2731167    8.225888   1.0784525   566386.87
  16419.320  -1.2736264   8.2331137   1.0780285    570009.5
  16422.895  -1.2745439   8.2368678   1.0774028   572794.12
  16426.111  -1.2763325   8.2266775   1.0769104   575233.62
  16429.332  -1.2790253   8.2110319   1.0763782   578088.06
  16432.908  -1.2820943   8.1868535   1.0759289    581487.5
  16436.129  -1.2837399   8.1814461   1.0755279   584280.81
  16439.711  -1.2843836   8.1917544   1.0750563   587105.06
  16443.291  -1.2843251   8.2090611   1.0746255   589746.25
  16446.518  -1.2840887   8.2262685   1.0742333   592835.44
  16450.104  -1.2831009   8.2562552    1.073894    595726.5
  16453.689  -1.2814916   8.2931149   1.0735489    598398.5
  16457.277  -1.2797262   8.3308154   1.0731349   600484.44
  16460.510  -1.2788597   8.3551843   1.0728083   603278.37
  16464.100  -1.2796885   8.3600986   1.0723481   606081.19
  16467.695  -1.2824057   8.3426244   1.0718559   609083.94
  16471.289  -1.2861715   8.3125997   1.0714723   612340.62
  16474.885  -1.2898911   8.2800676   1.0710104   615453.25
  16478.842  -1.2930855   8.2586189   1.0704981   617427.87
  16482.441  -1.2947891    8.253102   1.0699754   620779.37
  16486.043  -1.2958221   8.2573765   1.0694602   623809.81
  16489.646  -1.2967989   8.2596086   1.0690033   626776.19
  16493.611  -1.2980514   8.2640794   1.0684954    629420.5
  16497.217  -1.2991412   8.2634488   1.0680435   632291.75
  16500.826  -1.2998904   8.2718244   1.0675774   635356.94
  16504.797  -1.3004251   8.2827844    1.067059   638099.12
  16508.406  -1.3010769   8.2900851   1.0665841   641296.19
  16512.381  -1.3022052   8.2926498   1.0659985   643858.19
  16516.357  -1.3035017   8.2968666   1.0655076   646600.12
  16519.975  -1.3046113   8.2969293   1.0650454      649456
  16523.953  -1.3056182   8.3029051   1.0645472   652395.81
  16527.936  -1.3063295   8.3121902     1.06409   654956.56
  16531.920  -1.3067114   8.3270876   1.0636151   657472.25
  16535.906  -1.3070529   8.3391913   1.0630854   660019.87
  16539.531   -1.307793   8.3455196   1.0626056   662713.44
  16543.520  -1.3091071   8.3471942   1.0621041   665314.94
  16547.875  -1.3107662   8.3452082   1.0616277   667633.37
  16551.867  -1.3123056   8.3435456   1.0610724   670328.75
  16555.863  -1.3137617   8.3442707   1.0605346   672889.06
  16559.861  -1.3152064   8.3441526   1.0599953   676268.31
  16563.859   -1.316819   8.3398045   1.0595303    680192.5
  16567.863  -1.3186338    8.334692   1.0591295   682739.62
  16572.230  -1.3205855   8.3289579   1.0584938   685429.69
  16576.234  -1.3223352   8.3256027   1.0580045   687942.69
  16580.607  -1.3239996   8.3235847   1.0574758   690253.62
  16584.617  -1.3250638   8.3297728   1.0569837    692734.5
  16588.992  -1.3259085   8.3385356   1.0563824   695002.31
  16593.008  -1.3265801   8.3494175   1.0559185   697432.06
  16597.387  -1.3274534   8.3554356   1.0553403   699984.75
  16601.406  -1.3283845   8.3617968   1.0548665   701960.37
  16605.793  -1.3293871   8.3680497   1.0543082   703620.94
  16610.182  -1.3304972   8.3743123   1.0537798   706407.37
  16614.570  -1.3317241   8.3757956   1.0533197   709140.81
  16618.963   -1.332962   8.3810013   1.0527547   712084.19
  16622.992   -1.334185   8.3825255   1.0523111    713216.5
  16627.389  -1.3358008   8.3801361   1.0517718   715401.75
  16631.789  -1.3375134   8.3783362   1.0512147   718306.94
  16636.191  -1.3392252   8.3780982   1.0506692   721064.06
  16640.963  -1.3409591   8.3774127   1.0500719   722820.06
  16645.369  -1.3421095   8.3804493   1.0495273   724475.06
  16649.779  -1.3431067   8.3866472   1.0489895      727322
  16654.189  -1.3440965   8.3968719   1.0484586   728956.87
  16658.604    -1.34526   8.4007959   1.0478917   731177.69
  16663.389  -1.3469299   8.3996016   1.0472883   733260.37
  16667.809  -1.3485527   8.3987826   1.0467744   736089.06
  16672.598  -1.3503746   8.3965653   1.0461809   736878.69
  16677.021    -1.35188   8.3951894   1.0456624   739788.25
  16681.818  -1.3534149   8.3978898   1.0450499   741775.69
  16686.246   -1.354759   8.3996662   1.0444865   743758.12
  16691.047  -1.3560741   8.4044756   1.0439163    746408.5
  16695.480  -1.3570889   8.4117961   1.0433653   748128.81
  16700.287  -1.3581588   8.4189826   1.0427922      750345
  16705.096  -1.3592377   8.4278422   1.0421563   751382.19
  16709.908  -1.3605493   8.4290171   1.0416405   751465.31
  16714.723  -1.3622022   8.4321337   1.0409417   752894.31
  16719.170  -1.3635777   8.4310182   1.0404469   757542.31
  16723.990   -1.365109   8.4321958   1.0398843   758738.25
  16728.813  -1.3666703   8.4354293   1.0392964   760191.06
  16733.639  -1.3681982   8.4352937   1.0387466   761369.87
  16738.840  -1.3697308   8.4368517   1.0380986   762788.62
  16743.670  -1.3711776   8.4432019   1.0375391   764983.25
  16748.506  -1.3725799   8.4453154   1.0369583   765982.87
  16753.342  -1.3740136   8.4470275   1.0363819   768327.44
  16758.182  -1.3754167    8.451567   1.0357919   768916.87
  16763.396  -1.3769549   8.4548843   1.0351743   770301.31
  16768.244  -1.3784656   8.4557899   1.0345352   771335.62
  16773.094  -1.3800495   8.4562501   1.0339719   772675.94
  16778.318  -1.3816951   8.4585023   1.0333608   773658.12
  16783.174  -1.3831562   8.4606485   1.0327304   775743.31
  16788.404  -1.3846055   8.4645478    1.032092   776361.44
  16793.641  -1.3861201   8.4680565   1.0314836   778928.44
  16798.504   -1.387524   8.4706276   1.0309158   779720.44
  16803.746  -1.3888995   8.4748221   1.0301663   779798.31
  16808.990    -1.39035   8.4806348   1.0297413   780426.19
  16813.863  -1.3914916   8.4853603   1.0292177   777882.94
  16819.115  -1.3930367   8.4919548   1.0283225   780322.69
  16824.369  -1.3945685   8.4932283   1.0278281   785356.31
  16829.627  -1.3961955   8.4939908   1.0272048   785961.94
  16834.887  -1.3977819   8.4964718   1.0265644   786291.44
  16840.152  -1.3993097   8.4991819   1.0259629   787196.94
  16845.420  -1.4007107   8.5068743    1.025316   789149.31
  16850.691  -1.4022529   8.5082557   1.0246446   788874.62
  16855.965  -1.4038479   8.5109014   1.0240634   790818.94
  16861.244    -1.40549   8.5113495   1.0234051   791921.12
  16866.525  -1.4070816   8.5138721   1.0227863   792082.31
  16872.188  -1.4087972   8.5174447   1.0220927   791118.37
  16877.477  -1.4102785   8.5181208   1.0215518   792116.37
  16882.768  -1.4117941   8.5255068    1.020945   792645.37
  16888.441  -1.4133856   8.5274479   1.0202915   793443.25
  16893.740    -1.41489   8.5315341   1.0197123   792537.12
  16899.041  -1.4164447   8.5328438   1.0190655   793605.87
  16904.727  -1.4179414   8.5370978   1.0183919   793543.56
  16910.416  -1.4194937   8.5390757    1.017738   794173.25
  16915.729  -1.4209463   8.5452682   1.0170938   793583.81
  16921.424  -1.4224285   8.5489586   1.0164627   794689.31
  16926.744  -1.4238995   8.5521034   1.0157847   795342.81
  16932.447  -1.4255853   8.5533798   1.0151539   795608.19
  16938.154  -1.4272208   8.5552092   1.0144971    796339.5
  16943.865  -1.4288446   8.5587721   1.0138547   795616.81
  16949.582  -1.4304255   8.5624183   1.0132031      793541
  16955.301  -1.4320153   8.5658786   1.0124661   793519.12
  16960.643  -1.4334997   8.5698334   1.0118862   793816.19
  16966.371  -1.4351606   8.5719638   1.0112812   795127.25
  16972.100  -1.4368088   8.5733769   1.0106664   795065.19
  16977.836  -1.4384886   8.5778651   1.0100098   795163.06
  16983.957  -1.4402586   8.5818584   1.0092858   793914.87
  16989.699  -1.4418481   8.5845003    1.008631   793744.69
  16995.447   -1.443387   8.5866719   1.0079283   794511.37
  17001.197  -1.4448919   8.5923719   1.0072846      794251
