# XDI/1.0 EXAFS Data Collector 1.1 AD.RGN
# Column.1: energy eV
# Column.2: mutrans
# Column.3: murefer
# Column.4: i0
# Beamline.name: SSRL 4-3 (?)
# Detector.I0: N2 15cm
# Detector.I1: N2+Ar 30cm
# Detector.I2: Ar
# Element.edge: K
# Element.symbol: Sr
# Mono.d_spacing: 1.920128
# Mono.name: Si(220)
# Mono.notes: (?) unfocussed, detuned 50%, clockwise at E=16000eV
# Sample.formula: SrZrSi2O7
# Sample.name: SrZrSi2O7
# Sample.prep: powder
# Sample.reference: SrCO3
# Sample.temperature: 15K
# Scan.start_time: 1997-03-18 11:11:52
# ///
#    Note: mono d_spacing is nominal!
#-------------
#   energy   mutrans      murefer      i0
  15700.043  0.45308046   -1.062762   40559.602
  15709.991  0.45163024  -1.0644453   39919.602
  15719.954  0.44841273  -1.0673337   39725.602
  15729.931  0.44632004  -1.0685856   39156.602
  15739.919  0.44616634   -1.069175   38486.602
  15749.921  0.44286809  -1.0719593   38420.602
  15759.935  0.44011185  -1.0737825   38072.602
  15769.963  0.43843286  -1.0755805   37557.602
  15780.002  0.43650709  -1.0776364   37166.602
  15790.057  0.43505545  -1.0791004   36749.602
  15799.958  0.43279255  -1.0812455   36316.602
  15810.037  0.43044761  -1.0834707   36051.602
  15819.965  0.42856383  -1.0853593   35670.602
  15830.071  0.42608587  -1.0873982   35326.602
  15840.023  0.42413163  -1.0894877   34985.602
  15849.989  0.42261253  -1.0910077   34497.602
  15859.968  0.42052276  -1.0928573   34125.602
  15869.959  0.41821363  -1.0949557   33826.602
  15879.964  0.41662413  -1.0967964   33387.602
  15889.980  0.41459138  -1.0989814   33077.602
  15900.011  0.41268423  -1.1008894     32739.6
  15910.055  0.41121116  -1.1026566     32288.6
  15919.941  0.40976144  -1.1045593     31839.6
  15930.011    0.407718  -1.1062735     31550.6
  15939.925  0.40615685  -1.1083682     31091.6
  15950.020  0.40360987  -1.1103763     30964.6
  15959.959  0.40170477  -1.1124119     30657.6
  15970.079  0.40026492  -1.1145566     30304.6
  15980.045  0.39803917  -1.1160728     29985.6
  15990.021  0.39654271   -1.118237     29735.6
  16000.012  0.39596648  -1.1199962     29128.6
  16010.014    0.394641  -1.1222485     28852.6
  16020.030  0.39293011  -1.1238642     28579.6
  16030.059  0.39214314  -1.1257444     28185.6
  16039.929  0.39117717   -1.127642     27865.6
  16049.982  0.39105215  -1.1296875     27656.6
  16060.049  0.39186591   -1.131243     27424.6
  16069.959  0.39582603  -1.1324995     26998.6
  16080.051  0.40475158  -1.1335679     26618.6
  16081.248  0.40615816  -1.1336709     26702.6
  16082.448  0.40804453  -1.1337539     26590.6
  16083.646  0.41028157  -1.1337676     26639.6
  16084.846  0.41209755  -1.1337635     26775.6
  16086.215  0.41615166   -1.133631     26576.6
  16087.415  0.42034065  -1.1337085     26514.6
  16088.613  0.42477183  -1.1334161     26514.6
  16089.813  0.43101893   -1.133241     26337.6
  16091.013  0.43840232  -1.1332801     26326.6
  16092.214  0.44823106  -1.1331085     26215.6
  16093.586  0.46414827  -1.1333009     26230.6
  16094.785  0.48392588  -1.1333296     26165.6
  16095.986  0.51786517  -1.1335894     26125.6
  16097.187  0.56747543  -1.1342302     26108.6
  16098.387  0.64229656  -1.1350512     26074.6
  16099.588   0.7353696  -1.1360199     26093.6
  16100.962  0.87923023  -1.1352094     26006.6
  16102.162   1.0211781  -1.1292945     25966.6
  16103.364   1.1697357  -1.1158483     25889.6
  16104.565   1.3319469  -1.0900693     25800.6
  16105.769   1.4726772  -1.0566619     25822.6
  16106.970   1.6154948   -1.016685     25767.6
  16108.173   1.7273463 -0.98309524     25728.6
  16109.547   1.8134519 -0.94696379     25779.6
  16110.750    1.829501 -0.92173781     25735.6
  16111.952   1.7982179 -0.91383089     25661.6
  16113.155   1.7413155 -0.91858756     25702.6
  16114.359   1.6869635 -0.92912353     25585.6
  16115.563   1.6292038 -0.94070611     25577.6
  16116.767   1.5790947 -0.95017353     25525.6
  16118.143   1.5252921 -0.96279563     25429.6
  16119.345   1.4854479 -0.97513861     25297.6
  16120.551   1.4547237 -0.98555947     25294.6
  16121.754   1.4272778 -0.99366609     25401.6
  16122.960   1.4093908 -0.99728725     25315.6
  16124.163   1.3988424 -0.99963193     25341.6
  16125.369    1.395204  -1.0002365     25253.6
  16126.746   1.3975823  -1.0012303     25123.6
  16127.951   1.4022911  -1.0017335     25205.6
  16129.157   1.4097873  -1.0019497     25108.6
  16130.362   1.4166571  -1.0019443     24877.6
  16131.568   1.4181021  -1.0011891     24818.6
  16132.774    1.416301  -0.9998982     24728.6
  16133.980   1.4157352 -0.99751664     24817.6
  16135.188   1.4174992 -0.99548397     24704.6
  16136.568   1.4203114 -0.99268052     24906.6
  16137.773   1.4277703 -0.99037573     24884.6
  16138.981   1.4402236 -0.98734059     24799.6
  16140.188   1.4555196 -0.98440024     24714.6
  16141.396   1.4759106 -0.98138373     24650.6
  16142.603   1.4970858 -0.97864203     24543.6
  16143.812   1.5188314 -0.97510396     24498.6
  16145.020   1.5365187 -0.97334733     24554.6
  16146.400   1.5513143 -0.97123533     24519.6
  16147.607   1.5566358  -0.9717028     24536.6
  16148.817   1.5545065 -0.97144297     24569.6
  16150.024   1.5474057 -0.97249645   48843.199
  16151.062   1.5387356 -0.97335907   48971.184
  16152.271   1.5280606 -0.97504174   48566.137
  16153.481   1.5161311  -0.9767994   48518.063
  16154.517   1.5081537 -0.97831966   48393.953
  16155.727   1.4974993 -0.97880085   48398.816
  16156.937   1.4892967  -0.9804156   48188.648
  16158.146    1.485086 -0.98238053   48298.449
  16159.528   1.4789422 -0.98492086   48159.219
  16160.740   1.4740622 -0.98716181   48062.957
  16162.122   1.4672972   -0.989474   47897.664
  16163.334   1.4615864 -0.99178132   47972.344
  16164.718    1.456377 -0.99348964   47823.988
  16166.102   1.4525917 -0.99567225   47649.605
  16167.486   1.4479388  -0.9966356   47613.191
  16168.871   1.4433776 -0.99771449   47516.746
  16170.257   1.4397549 -0.99951685    47363.27
  16171.642    1.433758  -1.0004222   47391.762
  16173.200   1.4262657  -1.0013272   47501.227
  16174.586   1.4197455  -1.0013808   47321.656
  16176.146   1.4131841  -1.0014443   47395.059
  16177.705   1.4061094  -1.0005833    47567.43
  16179.265   1.4009131 -0.99983786    47767.77
  16180.825   1.3980481 -0.99833706   47866.078
  16182.386   1.3977636 -0.99776804   48277.355
  16183.946   1.4005122 -0.99727778   48515.605
  16185.680   1.4060064 -0.99599595    48639.82
  16187.242   1.4136703 -0.99580638   48734.008
  16188.977   1.4229501 -0.99550144   48839.164
  16190.539   1.4305711 -0.99526225   48919.289
  16192.275   1.4383358 -0.99546817   48861.383
  16194.011   1.4452658 -0.99594982   49068.445
  16195.748   1.4517308 -0.99621153   48740.477
  16197.485   1.4552477 -0.99622699    49073.48
  16199.396   1.4586497 -0.99670315   48873.449
  16201.134   1.4578558 -0.99603095   48755.391
  16203.046   1.4552889 -0.99694284   48988.301
  16204.785   1.4510826 -0.99708835    48968.18
  16206.698   1.4465928 -0.99799149   49031.027
  16208.612   1.4419797 -0.99858277   49136.848
  16210.525   1.4383681 -0.99951074   49049.633
  16212.439   1.4334283  -1.0005429   49291.391
  16214.355   1.4288603  -1.0017045   49243.117
  16216.271   1.4242093  -1.0027995   49372.809
  16218.360   1.4201927  -1.0043448   49411.473
  16220.276    1.417387  -1.0051514   49389.109
  16222.367   1.4139332  -1.0064343   49531.711
  16224.459   1.4097804  -1.0074738   49785.281
  16226.551   1.4054559  -1.0081084   50010.824
  16228.644   1.4012428  -1.0086725   50064.336
  16230.738   1.3972834  -1.0092279   50015.816
  16232.832    1.393663  -1.0095509   50064.266
  16234.925   1.3900947  -1.0100168   50254.684
  16237.194   1.3877449  -1.0104363    50244.07
  16239.290   1.3853651  -1.0107938   50371.426
  16241.561   1.3831363  -1.0107748   50377.754
  16243.832   1.3805708  -1.0108135   50649.051
  16246.104   1.3791669  -1.0114056   50604.313
  16248.377   1.3776003  -1.0112669   50856.547
  16250.650   1.3782613  -1.0109535   50963.754
  16252.925   1.3805985  -1.0105077   51096.926
  16255.199   1.3836817  -1.0101083   51057.066
  16257.649   1.3881704  -1.0109943    51152.18
  16259.925   1.3923763  -1.0115231   51365.258
  16262.377   1.3970169  -1.0119974   51585.309
  16264.830   1.4033035  -1.0125106   51468.328
  16267.282   1.4094769  -1.0134904   51755.316
  16269.737   1.4138108  -1.0137238   51845.273
  16272.192   1.4155794  -1.0134437   51954.203
  16274.646   1.4153423  -1.0136119   51967.098
  16277.279    1.413417  -1.0138953   52109.965
  16279.736    1.408763  -1.0138797   52436.801
  16282.369   1.4034231  -1.0149794   52397.605
  16284.828   1.3970647  -1.0155213   52631.379
  16287.463   1.3896863  -1.0160723   52834.121
  16290.099   1.3836367  -1.0174335   52933.832
  16292.735   1.3777207  -1.0183839   53132.516
  16295.373   1.3715182  -1.0189898   53272.164
  16298.013   1.3667435  -1.0201113   53099.785
  16300.827   1.3632269  -1.0208743   53248.375
  16303.468   1.3609294   -1.021449   53549.934
  16306.286   1.3596578  -1.0221551   53663.461
  16309.104   1.3593682  -1.0226155   53840.957
  16311.748   1.3608736  -1.0232117   54263.426
  16314.567   1.3631175  -1.0233438   54531.859
  16317.388   1.3664315  -1.0238906   54534.266
  16320.211   1.3702678  -1.0244195   54859.641
  16323.212   1.3743382   -1.024166   54823.984
  16326.035   1.3758415  -1.0237576   55141.297
  16328.861   1.3759886  -1.0243767   55435.578
  16331.863   1.3738737  -1.0247482   55445.832
  16334.867   1.3697454   -1.025339   55466.051
  16337.696   1.3658696  -1.0255587   55730.242
  16340.703   1.3625473  -1.0261916   55772.402
  16343.710   1.3602346  -1.0268635   55807.531
  16346.719   1.3586641   -1.027855   56128.629
  16349.905   1.3581512  -1.0287702   56208.695
  16352.918   1.3573575  -1.0297374   56373.734
  16355.929   1.3560352  -1.0303103   56628.738
  16359.119   1.3544759  -1.0310627   56702.715
  16362.312   1.3537344  -1.0322359    56911.66
  16365.326   1.3529177  -1.0325311    57034.57
  16368.521   1.3520264  -1.0328471   57392.457
  16371.717   1.3504092  -1.0341783   57414.309
  16374.914   1.3470783  -1.0348715   57595.129
  16378.111   1.3445982  -1.0349911   57780.922
  16381.488   1.3432154  -1.0358998    57852.68
  16384.689   1.3423329  -1.0364216    57987.41
  16388.068   1.3418996  -1.0370729   58075.109
  16391.271    1.340197  -1.0367903   58512.777
  16394.656     1.33835  -1.0375983   58730.414
  16398.039   1.3366637  -1.0385448    58747.02
  16401.424   1.3352381  -1.0390271   58949.598
  16404.813   1.3327527  -1.0395843   58789.145
  16408.199   1.3298546  -1.0403754   59209.656
  16411.590   1.3270961  -1.0407487   59164.141
  16415.160   1.3260837  -1.0417906   59511.594
  16418.553   1.3253531  -1.0422023   59604.016
  16422.127    1.324173  -1.0423279    59511.41
  16425.521    1.323089  -1.0427037    59634.77
  16429.098   1.3226414  -1.0437098   60276.102
  16432.676   1.3242154  -1.0445075   60096.398
  16436.254   1.3249313  -1.0448947   60176.668
  16439.834   1.3247948  -1.0459038   60577.906
  16443.416   1.3221388  -1.0458554   60649.113
  16447.180   1.3197744  -1.0464905   60748.293
  16450.766   1.3179807  -1.0474717   61161.438
  16454.354   1.3162955  -1.0478864   61329.551
  16458.121   1.3153489  -1.0485588   61318.637
  16461.891    1.314234  -1.0494583   61598.691
  16465.662   1.3121948  -1.0500351   61430.715
  16469.438   1.3106498  -1.0505043   61682.707
  16473.211   1.3102998   -1.051255   61703.668
  16476.988   1.3096357  -1.0515397   61886.602
  16480.768    1.307622  -1.0521036     61996.5
  16484.549    1.303984  -1.0529707   61997.371
  16488.510   1.3005252  -1.0545924   62401.211
  16492.295   1.2971102  -1.0550806    62537.02
  16496.260   1.2935756  -1.0550736   62969.797
  16500.229   1.2904056  -1.0562279   62578.543
  16504.199   1.2885225  -1.0571907   62929.258
  16508.172    1.287655  -1.0576023   62798.945
  16512.145   1.2888685  -1.0583745   62824.598
  16516.121   1.2898647  -1.0589458   63174.223
  16520.100   1.2904751  -1.0593403   63161.816
  16524.080   1.2897198  -1.0603406   63651.379
  16528.242   1.2888991  -1.0611706    63743.91
  16532.227   1.2871144  -1.0621592    63680.41
  16536.393   1.2839676  -1.0617706   63959.883
  16540.563   1.2820933  -1.0629334    64239.32
  16544.734   1.2797093   -1.063845    64437.73
  16548.906   1.2755333  -1.0641248   63971.109
  16553.084   1.2730497  -1.0650033   64325.457
  16557.262   1.2710108   -1.065147   64235.773
  16561.441   1.2701196  -1.0660656   64793.063
  16565.807   1.2687844  -1.0667522   64733.316
  16569.990   1.2678283  -1.0676549   64868.543
  16574.357   1.2674446  -1.0678469   65054.734
  16578.549   1.2655076  -1.0685643   65181.898
  16582.922   1.2636815  -1.0693128   65188.031
  16587.297   1.2624076  -1.0697978   65682.133
  16591.674   1.2609892  -1.0710914   65498.203
  16596.055   1.2589735  -1.0715342   65395.246
  16600.438   1.2572071  -1.0724624   66138.258
  16604.822   1.2549639  -1.0732752   65857.234
  16609.393    1.252694  -1.0748793    66429.18
  16613.783   1.2492838   -1.075604   66231.102
  16618.357    1.246218   -1.076272   66622.984
  16622.754   1.2442094   -1.076737   66818.844
  16627.332   1.2440857  -1.0771192   67056.672
  16631.916   1.2410805  -1.0775016   67159.461
  16636.502   1.2402664  -1.0786871   67066.227
  16641.090   1.2401248  -1.0797053   67100.961
  16645.682    1.239606  -1.0811728   67227.664
  16650.273   1.2374333  -1.0814588   67270.336
  16655.053   1.2355263   -1.082431   67374.977
  16659.652   1.2335214  -1.0828879   67942.586
  16664.254    1.231074  -1.0834554   67566.172
  16669.043   1.2293458  -1.0840971   67478.719
  16673.832   1.2291846  -1.0856345   67965.234
  16678.625   1.2274939  -1.0864872   67940.727
  16683.420   1.2249059  -1.0871898    67974.18
  16688.221   1.2224675  -1.0879843   68193.609
  16693.023   1.2202427  -1.0890495   68155.008
  16697.828    1.218675  -1.0899707   68492.367
  16702.635   1.2154714  -1.0899776   68614.703
  16707.445   1.2127247  -1.0903912   68444.008
  16712.445   1.2109242  -1.0920007   68922.281
  16717.260   1.2084527  -1.0928262   68444.523
  16722.264   1.2063647  -1.0931376   68455.734
  16727.271   1.2043899  -1.0940735   68540.914
  16732.281   1.2034925  -1.0945734   68546.063
  16737.295   1.2028489  -1.0951001   68768.188
  16742.313    1.201736  -1.0962521   68455.273
  16747.332   1.1997702  -1.0974694   68579.328
  16752.355   1.1976788  -1.0984203   68614.359
  16757.381    1.195573  -1.0992869   68664.352
  16762.596   1.1923116   -1.099863    68578.32
  16767.629   1.1887526  -1.1004045   68537.258
  16772.852   1.1866771   -1.101446   68751.156
  16777.889   1.1830621  -1.1014443   68319.031
  16783.117   1.1831913  -1.1027505   68910.875
  16788.348    1.180511  -1.1030794   69141.688
  16793.584   1.1789753  -1.1046441   69131.469
  16798.822   1.1764854  -1.1052421   68870.219
  16804.063   1.1747869  -1.1059019   69139.938
  16809.309   1.1721746  -1.1065288   68902.633
  16814.744   1.1703566  -1.1076191   69107.289
  16819.996    1.169779  -1.1091195   69251.914
  16825.438   1.1670869  -1.1097387   69066.516
  16830.697   1.1653297  -1.1105275   69305.078
  16836.146   1.1630038  -1.1113514   68936.617
  16841.600   1.1610679  -1.1119655   69158.125
  16847.059   1.1584984  -1.1128477   68958.594
  16852.330   1.1563372  -1.1135387   69188.039
  16857.982   1.1540427  -1.1144541   68918.453
  16863.451   1.1525243   -1.115304   69177.836
  16868.922   1.1508113   -1.116675   69394.188
  16874.396   1.1477172  -1.1173224   68952.508
  16880.064   1.1443764  -1.1170259   68963.797
  16885.547   1.1421793  -1.1179576   69241.055
  16891.223   1.1411247  -1.1195445   69480.289
  16896.711   1.1386055  -1.1196882   69354.484
  16902.396   1.1365233  -1.1207755   69249.656
  16908.082   1.1362018   -1.122799   69350.789
  16913.773   1.1333834  -1.1227148   69318.898
  16919.469    1.131597  -1.1234481   69478.969
  16925.166   1.1297698  -1.1244677   69431.016
  16930.869   1.1281602  -1.1259272   69228.031
  16936.576   1.1262209  -1.1271059   69274.016
  16942.287   1.1247088  -1.1276158   69422.961
  16948.191   1.1223412   -1.128867   69477.883
  16953.910   1.1189594  -1.1289801   69075.781
  16959.822   1.1162842   -1.129745   69102.641
  16965.740   1.1154117  -1.1318852   69613.469
  16971.471   1.1126171  -1.1316637   69535.266
  16977.396   1.1097968   -1.132502   69364.031
  16983.326   1.1140599  -1.1338163   69803.773
  16989.260   1.1061973  -1.1343802   69432.477
  16995.197   1.1049856   -1.135777   69475.156
  17001.332    1.102615  -1.1368451   69391.797
